# Wavelength (Angstroms) Flux (erg cm^-2 s^-1 A^-1)
# Attenuated SED (Av=0.1)
1005.00 6.390927e-02
1015.00 6.176730e-02
1025.00 3.704354e-02
1035.00 4.705802e-02
1045.00 7.572381e-02
1055.00 7.759617e-02
1065.00 6.489164e-02
1075.00 7.396470e-02
1085.00 6.001226e-02
1095.00 7.558959e-02
1105.00 7.778031e-02
1115.00 7.570544e-02
1125.00 7.283447e-02
1135.00 8.669117e-02
1145.00 7.933139e-02
1155.00 8.546806e-02
1165.00 8.940450e-02
1175.00 7.130741e-02
1185.00 8.402477e-02
1195.00 5.009578e-02
1205.00 4.264770e-02
1215.00 3.039680e-02
1225.00 5.150892e-02
1235.00 8.604033e-02
1245.00 9.982016e-02
1255.00 9.442546e-02
1265.00 7.325354e-02
1275.00 1.085559e-01
1285.00 1.173380e-01
1295.00 9.257378e-02
1305.00 8.493846e-02
1315.00 1.111294e-01
1325.00 1.089338e-01
1335.00 9.111920e-02
1345.00 1.167316e-01
1355.00 1.121615e-01
1365.00 9.818549e-02
1375.00 1.073324e-01
1385.00 1.088931e-01
1395.00 1.027788e-01
1405.00 1.034558e-01
1415.00 9.969181e-02
1425.00 1.045568e-01
1435.00 1.002164e-01
1442.00 1.075637e-01
1447.00 1.116974e-01
1455.00 1.072648e-01
1465.00 9.819215e-02
1475.00 9.589479e-02
1485.00 9.970089e-02
1495.00 1.029440e-01
1505.00 9.843138e-02
1512.00 8.687546e-02
1517.00 9.474566e-02
1525.00 8.716330e-02
1535.00 7.578753e-02
1545.00 8.895700e-02
1555.00 8.187055e-02
1565.00 8.003390e-02
1575.00 8.441388e-02
1585.00 9.013417e-02
1595.00 9.268292e-02
1605.00 8.861898e-02
1615.00 8.900249e-02
1625.00 8.218837e-02
1635.00 8.696630e-02
1645.00 8.856155e-02
1655.00 7.885514e-02
1665.00 8.766361e-02
1672.00 7.294001e-02
1677.00 8.671394e-02
1685.00 9.341610e-02
1695.00 8.682065e-02
1705.00 8.181781e-02
1715.00 7.706385e-02
1725.00 7.628059e-02
1735.00 8.165854e-02
1745.00 7.984844e-02
1755.00 8.703385e-02
1765.00 7.609081e-02
1775.00 8.064423e-02
1785.00 8.120958e-02
1795.00 8.821850e-02
1805.00 8.627363e-02
1815.00 8.064907e-02
1825.00 8.056827e-02
1835.00 7.680497e-02
1845.00 6.993459e-02
1855.00 7.016970e-02
1865.00 7.260482e-02
1875.00 7.873317e-02
1885.00 7.327194e-02
1895.00 7.149877e-02
1905.00 7.329050e-02
1915.00 7.190406e-02
1925.00 7.103555e-02
1935.00 7.075028e-02
1945.00 7.481958e-02
1955.00 7.108850e-02
1967.00 7.783865e-02
1976.00 7.898360e-02
1984.00 7.497901e-02
1995.00 7.222055e-02
2005.00 7.317225e-02
2015.00 6.975298e-02
2025.00 7.246675e-02
2035.00 7.021858e-02
2045.00 7.371918e-02
2055.00 6.970373e-02
2065.00 6.941280e-02
2074.00 7.481211e-02
2078.00 7.574407e-02
2085.00 7.865287e-02
2095.00 7.397551e-02
2105.00 7.263638e-02
2115.00 7.424751e-02
2125.00 7.408817e-02
2135.00 6.683749e-02
2145.00 7.252026e-02
2155.00 7.433100e-02
2165.00 6.976510e-02
2175.00 6.894429e-02
2185.00 7.062369e-02
2195.00 7.388498e-02
2205.00 7.089054e-02
2215.00 6.439940e-02
2225.00 6.390949e-02
2235.00 7.277510e-02
2245.00 6.785924e-02
2255.00 6.190818e-02
2265.00 6.230115e-02
2275.00 6.529237e-02
2285.00 7.109692e-02
2295.00 6.545338e-02
2305.00 6.705961e-02
2315.00 6.211717e-02
2325.00 4.772780e-02
2335.00 5.462440e-02
2345.00 4.938376e-02
2355.00 6.022858e-02
2365.00 4.970139e-02
2375.00 5.400120e-02
2385.00 4.568709e-02
2395.00 5.119872e-02
2405.00 4.907374e-02
2415.00 5.152457e-02
2425.00 6.147256e-02
2435.00 5.950232e-02
2445.00 6.595814e-02
2455.00 6.588762e-02
2465.00 6.279606e-02
2475.00 5.840078e-02
2485.00 5.414834e-02
2495.00 5.461291e-02
2505.00 6.580605e-02
2513.00 5.033236e-02
2518.00 4.938084e-02
2525.00 4.749712e-02
2535.00 5.333036e-02
2545.00 5.321284e-02
2555.00 6.855310e-02
2565.00 6.047201e-02
2575.00 6.948308e-02
2585.00 6.589303e-02
2595.00 6.297037e-02
2605.00 5.832754e-02
2615.00 5.588898e-02
2625.00 6.427230e-02
2635.00 8.249006e-02
2645.00 1.001995e-01
2655.00 1.247800e-01
2665.00 9.046281e-02
2675.00 9.904513e-02
2685.00 1.085778e-01
2695.00 8.714027e-02
2705.00 1.006505e-01
2715.00 8.134834e-02
2725.00 7.147019e-02
2735.00 8.343829e-02
2745.00 6.021861e-02
2755.00 6.973438e-02
2765.00 8.198627e-02
2775.00 8.681573e-02
2785.00 6.655403e-02
2795.00 4.210386e-02
2805.00 4.771456e-02
2815.00 8.113483e-02
2825.00 1.003924e-01
2835.00 9.345660e-02
2845.00 7.526894e-02
2855.00 5.876807e-02
2865.00 9.214284e-02
2875.00 1.146297e-01
2885.00 1.092451e-01
2895.00 1.276834e-01
2910.00 1.664716e-01
2930.00 1.477029e-01
2950.00 1.369992e-01
2970.00 1.405750e-01
2990.00 1.424518e-01
3010.00 1.411951e-01
3030.00 1.509204e-01
3050.00 1.558785e-01
3070.00 1.706833e-01
3090.00 1.659538e-01
3110.00 1.921439e-01
3130.00 1.777657e-01
3150.00 1.802223e-01
3170.00 1.968086e-01
3190.00 1.720375e-01
3210.00 1.874716e-01
3230.00 1.624506e-01
3250.00 2.220461e-01
3270.00 2.573628e-01
3290.00 2.542338e-01
3310.00 2.361469e-01
3330.00 2.436836e-01
3350.00 2.349463e-01
3370.00 1.782773e-01
3390.00 2.006440e-01
3410.00 2.060306e-01
3430.00 2.178573e-01
3450.00 2.263071e-01
3470.00 2.344891e-01
3490.00 2.643073e-01
3510.00 2.833423e-01
3530.00 2.539553e-01
3550.00 2.924519e-01
3570.00 2.002096e-01
3590.00 2.047153e-01
3610.00 2.578626e-01
3630.00 2.739641e-01
3640.00 2.866530e-01
3650.00 3.240116e-01
3670.00 3.470029e-01
3690.00 3.082929e-01
3710.00 3.249485e-01
3730.00 2.185778e-01
3750.00 2.539237e-01
3770.00 3.279041e-01
3790.00 3.438368e-01
3810.00 3.273776e-01
3830.00 1.970174e-01
3850.00 2.684697e-01
3870.00 2.716380e-01
3890.00 3.089062e-01
3910.00 3.935292e-01
3930.00 2.130305e-01
3950.00 3.439334e-01
3970.00 2.320407e-01
3990.00 4.986014e-01
4010.00 5.535687e-01
4030.00 5.445042e-01
4050.00 5.228122e-01
4070.00 4.898847e-01
4090.00 5.961068e-01
4110.00 5.512495e-01
4130.00 5.492820e-01
4150.00 5.381251e-01
4170.00 5.482320e-01
4190.00 5.365628e-01
4210.00 5.426431e-01
4230.00 5.113446e-01
4250.00 5.497877e-01
4270.00 5.167552e-01
4290.00 4.862395e-01
4310.00 4.251861e-01
4330.00 6.023568e-01
4350.00 5.993874e-01
4370.00 6.644119e-01
4390.00 5.865426e-01
4410.00 6.216775e-01
4430.00 6.727837e-01
4450.00 6.803706e-01
4470.00 7.300547e-01
4490.00 7.496413e-01
4510.00 8.590728e-01
4530.00 7.432167e-01
4550.00 7.820970e-01
4570.00 8.481429e-01
4590.00 8.021084e-01
4610.00 8.224850e-01
4630.00 8.035581e-01
4650.00 8.139368e-01
4670.00 8.543758e-01
4690.00 8.404415e-01
4710.00 8.128861e-01
4730.00 8.404738e-01
4750.00 8.688034e-01
4770.00 8.534077e-01
4790.00 8.580837e-01
4810.00 8.598924e-01
4830.00 8.911422e-01
4850.00 8.398010e-01
4870.00 7.668527e-01
4890.00 8.592097e-01
4910.00 8.610116e-01
4930.00 8.412246e-01
4950.00 8.790104e-01
4970.00 8.592083e-01
4990.00 7.968808e-01
5010.00 7.489148e-01
5030.00 8.011395e-01
5050.00 7.964147e-01
5070.00 8.328220e-01
5090.00 7.833398e-01
5110.00 8.067638e-01
5130.00 7.760149e-01
5150.00 7.423496e-01
5170.00 6.767652e-01
5190.00 7.061838e-01
5210.00 7.750640e-01
5230.00 8.484825e-01
5250.00 8.922633e-01
5270.00 7.781305e-01
5290.00 9.074392e-01
5310.00 9.723180e-01
5330.00 8.421214e-01
5350.00 9.316913e-01
5370.00 9.247775e-01
5390.00 9.033322e-01
5410.00 8.891372e-01
5430.00 9.032707e-01
5450.00 9.283165e-01
5470.00 9.104713e-01
5490.00 9.188028e-01
5510.00 9.053063e-01
5530.00 9.456694e-01
5550.00 9.612960e-01
5570.00 9.390618e-01
5590.00 9.116943e-01
5610.00 9.484661e-01
5630.00 9.436861e-01
5650.00 9.622565e-01
5670.00 9.370473e-01
5690.00 9.709433e-01
5710.00 9.340356e-01
5730.00 1.022737e+00
5750.00 9.821637e-01
5770.00 9.919959e-01
5790.00 9.499143e-01
5810.00 9.941242e-01
5830.00 1.026639e+00
5850.00 9.903851e-01
5870.00 9.877813e-01
5890.00 8.511308e-01
5910.00 9.686399e-01
5930.00 9.806754e-01
5950.00 9.817253e-01
5970.00 1.001115e+00
5990.00 9.838220e-01
6010.00 9.709230e-01
6030.00 1.001319e+00
6050.00 1.022196e+00
6070.00 1.019586e+00
6090.00 9.809505e-01
6110.00 9.864033e-01
6130.00 9.264129e-01
6150.00 9.561140e-01
6170.00 8.946038e-01
6190.00 9.596363e-01
6210.00 9.496179e-01
6230.00 9.167629e-01
6250.00 8.875764e-01
6270.00 9.335194e-01
6290.00 9.544336e-01
6310.00 9.283937e-01
6330.00 9.434222e-01
6350.00 9.459355e-01
6370.00 9.410619e-01
6390.00 9.627515e-01
6410.00 9.438619e-01
6430.00 9.537456e-01
6450.00 9.466486e-01
6470.00 9.439804e-01
6490.00 9.257937e-01
6510.00 9.637585e-01
6530.00 9.640437e-01
6550.00 9.406615e-01
6570.00 8.921158e-01
6590.00 9.486114e-01
6610.00 9.585065e-01
6630.00 9.469397e-01
6650.00 9.472099e-01
6670.00 9.230299e-01
6690.00 9.351412e-01
6710.00 8.953803e-01
6730.00 9.215803e-01
6750.00 9.047788e-01
6770.00 9.102194e-01
6790.00 8.985972e-01
6810.00 9.047775e-01
6830.00 9.183880e-01
6850.00 8.926427e-01
6870.00 9.099658e-01
6890.00 9.250641e-01
6910.00 9.238263e-01
6930.00 9.173781e-01
6950.00 9.191045e-01
6970.00 9.334768e-01
6990.00 9.300023e-01
7010.00 9.183287e-01
7030.00 9.401489e-01
7050.00 9.441115e-01
7070.00 9.100913e-01
7090.00 8.767978e-01
7110.00 8.524268e-01
7130.00 8.317709e-01
7150.00 8.282476e-01
7170.00 8.418732e-01
7190.00 8.211941e-01
7210.00 8.430283e-01
7230.00 8.663658e-01
7250.00 8.747828e-01
7270.00 8.832035e-01
7290.00 8.729602e-01
7310.00 9.022948e-01
7330.00 9.062423e-01
7350.00 9.184111e-01
7370.00 9.462855e-01
7390.00 9.293036e-01
7410.00 9.302641e-01
7430.00 9.566605e-01
7450.00 9.553774e-01
7470.00 9.742972e-01
7490.00 9.737751e-01
7510.00 9.852164e-01
7530.00 1.004161e+00
7550.00 1.012627e+00
7570.00 1.009103e+00
7590.00 9.830902e-01
7610.00 9.630683e-01
7630.00 9.377933e-01
7650.00 9.139987e-01
7670.00 8.639500e-01
7690.00 8.873861e-01
7710.00 8.703177e-01
7730.00 8.735050e-01
7750.00 8.676829e-01
7770.00 8.806258e-01
7790.00 8.883182e-01
7810.00 8.885018e-01
7830.00 8.811722e-01
7850.00 8.693319e-01
7870.00 8.867941e-01
7890.00 8.756982e-01
7910.00 8.548242e-01
7930.00 8.595069e-01
7950.00 8.529091e-01
7970.00 8.846737e-01
7990.00 8.856021e-01
8010.00 8.978151e-01
8030.00 9.032622e-01
8050.00 9.049432e-01
8070.00 9.201782e-01
8090.00 9.135761e-01
8110.00 9.258047e-01
8130.00 9.576323e-01
8150.00 9.721251e-01
8170.00 9.836179e-01
8190.00 9.476104e-01
8210.00 9.372360e-01
8230.00 9.434454e-01
8250.00 9.421093e-01
8270.00 9.513407e-01
8290.00 9.401943e-01
8310.00 9.071578e-01
8330.00 8.990188e-01
8350.00 8.999357e-01
8370.00 9.053841e-01
8390.00 8.715614e-01
8410.00 9.041974e-01
8430.00 8.560038e-01
8450.00 8.334863e-01
8470.00 8.343879e-01
8490.00 8.398258e-01
8510.00 8.044368e-01
8530.00 8.386048e-01
8550.00 7.691694e-01
8570.00 8.699061e-01
8590.00 8.609770e-01
8610.00 8.724744e-01
8630.00 8.907865e-01
8650.00 8.924510e-01
8670.00 8.009928e-01
8690.00 8.723048e-01
8710.00 9.080434e-01
8730.00 9.172839e-01
8750.00 9.106166e-01
8770.00 9.281925e-01
8790.00 9.412280e-01
8810.00 9.224313e-01
8830.00 9.324345e-01
8850.00 9.318271e-01
8870.00 8.933022e-01
8890.00 9.055795e-01
8910.00 9.171013e-01
8930.00 9.005551e-01
8950.00 9.037330e-01
8970.00 9.076684e-01
8990.00 9.100877e-01
9010.00 8.836594e-01
9030.00 9.194818e-01
9050.00 9.500002e-01
9070.00 9.516671e-01
9090.00 9.343359e-01
9110.00 9.473924e-01
9130.00 9.650088e-01
9150.00 9.583239e-01
9170.00 9.584675e-01
9190.00 9.700073e-01
9210.00 9.298567e-01
9230.00 9.026188e-01
9250.00 8.989500e-01
9270.00 9.051678e-01
9290.00 8.900843e-01
9310.00 8.963005e-01
9330.00 8.987149e-01
9350.00 8.950370e-01
9370.00 8.791805e-01
9390.00 8.975790e-01
9410.00 8.817153e-01
9430.00 9.046868e-01
9450.00 8.918660e-01
9470.00 9.148443e-01
9490.00 9.172576e-01
9510.00 8.990991e-01
9530.00 9.060824e-01
9550.00 8.909648e-01
9570.00 9.002354e-01
9590.00 9.178916e-01
9610.00 9.042913e-01
9630.00 9.112784e-01
9650.00 8.923350e-01
9670.00 8.939803e-01
9690.00 9.093577e-01
9710.00 8.934566e-01
9730.00 8.836554e-01
9750.00 8.814833e-01
9770.00 8.869433e-01
9790.00 8.733188e-01
9810.00 8.978643e-01
9830.00 8.880547e-01
9850.00 8.958063e-01
9870.00 8.898130e-01
9890.00 8.891645e-01
9910.00 8.778175e-01
9930.00 8.848065e-01
9950.00 8.879768e-01
9970.00 8.888529e-01
9990.00 8.866714e-01
10030.00 8.868940e-01
10070.00 8.764110e-01
10130.00 8.866788e-01
10170.00 8.761829e-01
10220.00 8.802735e-01
10280.00 8.828886e-01
10320.00 8.731401e-01
10380.00 8.673184e-01
10430.00 8.714035e-01
10480.00 8.578538e-01
10520.00 8.473160e-01
10580.00 8.284251e-01
10630.00 8.202171e-01
10680.00 8.135378e-01
10720.00 8.198568e-01
10780.00 8.147505e-01
10820.00 8.026364e-01
10870.00 8.005464e-01
10920.00 7.999889e-01
10980.00 7.887113e-01
11020.00 7.819552e-01
11080.00 7.678127e-01
11130.00 7.656246e-01
11170.00 7.603165e-01
11220.00 7.603529e-01
11280.00 7.506472e-01
11330.00 7.500626e-01
11380.00 7.434675e-01
11430.00 7.353271e-01
11470.00 7.454079e-01
11530.00 7.428456e-01
11570.00 7.340425e-01
11620.00 7.221854e-01
11670.00 7.215803e-01
11730.00 7.238625e-01
11770.00 7.060131e-01
11830.00 6.983324e-01
11870.00 6.852565e-01
11920.00 6.958318e-01
11980.00 6.722258e-01
12030.00 6.858161e-01
12070.00 6.804478e-01
12120.00 6.812132e-01
12180.00 6.825463e-01
12230.00 6.782067e-01
12270.00 6.730603e-01
12320.00 6.678646e-01
12370.00 6.662228e-01
12430.00 6.546991e-01
12480.00 6.525110e-01
12530.00 6.462169e-01
12580.00 6.440997e-01
12620.00 6.398653e-01
12670.00 6.341031e-01
12720.00 6.342268e-01
12780.00 6.339865e-01
12830.00 6.137233e-01
12880.00 6.227551e-01
12920.00 6.153285e-01
12980.00 6.215166e-01
13020.00 6.135411e-01
13080.00 6.147643e-01
13130.00 5.999007e-01
13180.00 5.983802e-01
13230.00 5.980998e-01
13280.00 5.869489e-01
13320.00 5.858663e-01
13380.00 5.790802e-01
13430.00 5.802682e-01
13470.00 5.749109e-01
13520.00 5.698820e-01
13570.00 5.616630e-01
13630.00 5.583576e-01
13670.00 5.611538e-01
13730.00 5.626673e-01
13770.00 5.611073e-01
13820.00 5.613561e-01
13880.00 5.555539e-01
13930.00 5.293449e-01
13970.00 5.253660e-01
14020.00 5.200025e-01
14080.00 5.238383e-01
14120.00 5.171305e-01
14180.00 5.220569e-01
14230.00 5.168419e-01
14280.00 5.083528e-01
14330.00 5.170014e-01
14380.00 5.212099e-01
14420.00 5.090381e-01
14480.00 5.173928e-01
14520.00 5.134005e-01
14570.00 5.158947e-01
14620.00 5.044293e-01
14670.00 5.010720e-01
14720.00 4.970111e-01
14770.00 5.002034e-01
14830.00 5.029420e-01
14880.00 4.971613e-01
14920.00 5.104067e-01
14980.00 5.060439e-01
15030.00 4.976059e-01
15070.00 4.999248e-01
15120.00 5.095980e-01
15170.00 5.113077e-01
15220.00 5.112216e-01
15280.00 5.145077e-01
15330.00 5.135602e-01
15370.00 5.123652e-01
15430.00 5.084615e-01
15480.00 5.097003e-01
15520.00 5.052198e-01
15570.00 4.922300e-01
15620.00 4.961249e-01
15670.00 4.945467e-01
15720.00 5.050891e-01
15780.00 4.748941e-01
15830.00 4.766750e-01
15870.00 4.762529e-01
15930.00 4.908020e-01
15980.00 4.812350e-01
16050.00 4.830405e-01
16150.00 4.905164e-01
16250.00 4.765393e-01
16350.00 4.907502e-01
16450.00 4.710438e-01
16550.00 4.821244e-01
16650.00 4.703188e-01
16750.00 4.684652e-01
16850.00 4.611193e-01
16950.00 4.621618e-01
17050.00 4.528479e-01
17150.00 4.453328e-01
17250.00 4.364015e-01
17350.00 4.234612e-01
17450.00 4.175028e-01
17550.00 4.087932e-01
17650.00 3.999206e-01
17750.00 3.884512e-01
17850.00 3.813767e-01
17950.00 3.712334e-01
18050.00 3.610065e-01
18150.00 3.544710e-01
18250.00 3.494268e-01
18350.00 3.445357e-01
18450.00 3.354734e-01
18550.00 3.316803e-01
18650.00 3.230036e-01
18750.00 3.151895e-01
18850.00 3.146949e-01
18950.00 3.036466e-01
19050.00 3.072447e-01
19150.00 3.018619e-01
19250.00 2.981319e-01
19350.00 2.902238e-01
19450.00 2.834151e-01
19550.00 2.818069e-01
19650.00 2.771213e-01
19750.00 2.694388e-01
19850.00 2.667219e-01
19950.00 2.637675e-01
20050.00 2.625461e-01
20150.00 2.589582e-01
20250.00 2.533162e-01
20350.00 2.510655e-01
20450.00 2.503148e-01
20550.00 2.464828e-01
20650.00 2.436767e-01
20750.00 2.417395e-01
20850.00 2.386143e-01
20950.00 2.346195e-01
21050.00 2.347312e-01
21150.00 2.307350e-01
21250.00 2.282382e-01
21350.00 2.276377e-01
21450.00 2.247438e-01
21550.00 2.216129e-01
21650.00 2.180052e-01
21750.00 2.151079e-01
21850.00 2.131585e-01
21950.00 2.107343e-01
22050.00 2.055413e-01
22150.00 2.059625e-01
22250.00 2.012403e-01
22350.00 1.988917e-01
22450.00 1.965423e-01
22550.00 1.943508e-01
22650.00 1.902561e-01
22750.00 1.898049e-01
22850.00 1.853925e-01
22950.00 1.580895e-01
23050.00 1.674558e-01
23150.00 1.665252e-01
23250.00 1.438846e-01
23350.00 1.533305e-01
23450.00 1.478010e-01
23550.00 1.326788e-01
23650.00 1.422056e-01
23750.00 1.368316e-01
23850.00 1.247160e-01
23950.00 1.316287e-01
24050.00 1.288667e-01
24150.00 1.183325e-01
24250.00 1.227081e-01
24350.00 1.195481e-01
24450.00 1.132139e-01
24550.00 1.110039e-01
24650.00 1.119674e-01
24750.00 1.071382e-01
24850.00 9.770385e-02
24950.00 9.684075e-02
25050.00 9.812054e-02
25150.00 9.193763e-02
25250.00 9.416993e-02
25350.00 9.386165e-02
25450.00 9.172652e-02
25550.00 9.157659e-02
25650.00 9.174419e-02
25750.00 9.254736e-02
25850.00 8.913977e-02
25950.00 8.970447e-02
26050.00 9.050727e-02
26150.00 8.876729e-02
26250.00 8.750392e-02
26350.00 8.767089e-02
26450.00 8.656600e-02
26550.00 8.585806e-02
26650.00 8.379855e-02
26750.00 8.539616e-02
26850.00 8.444953e-02
26950.00 8.183234e-02
27050.00 8.231673e-02
27150.00 8.136923e-02
27250.00 8.129667e-02
27350.00 7.945004e-02
27450.00 7.936105e-02
27550.00 7.905737e-02
27650.00 7.783864e-02
27750.00 7.624538e-02
27850.00 7.654608e-02
27950.00 7.621005e-02
28050.00 7.494251e-02
28150.00 7.382600e-02
28250.00 7.368853e-02
28350.00 7.298564e-02
28450.00 7.218727e-02
28550.00 7.146819e-02
28650.00 7.109146e-02
28750.00 7.031630e-02
28850.00 6.920663e-02
28950.00 6.863034e-02
29050.00 6.821318e-02
29150.00 6.758892e-02
29250.00 6.604834e-02
29350.00 6.622846e-02
29450.00 6.515743e-02
29550.00 6.476378e-02
29650.00 6.435405e-02
29750.00 6.348197e-02
29850.00 6.284873e-02
29950.00 6.229520e-02
30050.00 6.151833e-02
30150.00 6.145874e-02
30250.00 6.048227e-02
30350.00 5.992841e-02
30450.00 6.004404e-02
30550.00 5.906718e-02
30650.00 5.875226e-02
30750.00 5.831749e-02
30850.00 5.756361e-02
30950.00 5.756740e-02
31050.00 5.729998e-02
31150.00 5.623471e-02
31250.00 5.625424e-02
31350.00 5.565948e-02
31450.00 5.531196e-02
31550.00 5.497228e-02
31650.00 5.424161e-02
31750.00 5.395779e-02
31850.00 5.358598e-02
31950.00 5.330995e-02
32100.00 5.263635e-02
32300.00 5.183635e-02
32500.00 5.106802e-02
32700.00 5.010794e-02
32900.00 5.177668e-02
33100.00 5.096008e-02
33300.00 4.770485e-02
33500.00 4.696728e-02
33700.00 4.606963e-02
33900.00 4.532358e-02
34100.00 4.444146e-02
34300.00 4.379884e-02
34500.00 4.310012e-02
34700.00 4.227323e-02
34900.00 4.151807e-02
35100.00 4.081072e-02
35300.00 3.995924e-02
35500.00 3.931555e-02
35700.00 3.855158e-02
35900.00 3.781137e-02
36100.00 3.736711e-02
36300.00 3.659467e-02
36500.00 3.590199e-02
36700.00 3.523311e-02
36900.00 3.448422e-02
37100.00 3.383909e-02
37300.00 3.332184e-02
37500.00 3.257247e-02
37700.00 3.203086e-02
37900.00 3.137722e-02
38100.00 3.097959e-02
38300.00 3.048579e-02
38500.00 2.995193e-02
38700.00 2.925771e-02
38900.00 2.879559e-02
39100.00 2.826138e-02
39300.00 2.780708e-02
39500.00 2.711237e-02
39700.00 2.668990e-02
39900.00 2.605912e-02
40100.00 2.576474e-02
40300.00 2.536601e-02
40500.00 2.479098e-02
40700.00 2.440012e-02
40900.00 2.396115e-02
41100.00 2.361022e-02
41300.00 2.318707e-02
41500.00 2.276393e-02
41700.00 2.233268e-02
41900.00 2.203756e-02
42100.00 2.157399e-02
42300.00 2.132700e-02
42500.00 2.091949e-02
42700.00 2.062422e-02
42900.00 1.955876e-02
43100.00 1.851727e-02
43300.00 1.851851e-02
43500.00 1.759728e-02
43700.00 1.714965e-02
43900.00 1.682225e-02
44100.00 1.610963e-02
44300.00 1.583039e-02
44500.00 1.555895e-02
44700.00 1.511100e-02
44900.00 1.501626e-02
45100.00 1.467254e-02
45300.00 1.434478e-02
45500.00 1.428990e-02
45700.00 1.415479e-02
45900.00 1.366638e-02
46100.00 1.370786e-02
46300.00 1.350049e-02
46500.00 1.327689e-02
46700.00 1.329427e-02
46900.00 1.304666e-02
47100.00 1.280686e-02
47300.00 1.281614e-02
47500.00 1.250409e-02
47700.00 1.241698e-02
47900.00 1.230567e-02
48100.00 1.202565e-02
48300.00 1.208311e-02
48500.00 1.182711e-02
48700.00 1.163545e-02
48900.00 1.147589e-02
49100.00 1.134039e-02
49300.00 1.121293e-02
49500.00 1.101302e-02
49700.00 1.099000e-02
49900.00 1.075800e-02
50100.00 1.055107e-02
50300.00 1.036970e-02
50500.00 1.021068e-02
50700.00 1.007071e-02
50900.00 9.946867e-03
51100.00 9.836649e-03
51300.00 9.737545e-03
51500.00 9.647368e-03
51700.00 9.563974e-03
51900.00 9.485376e-03
52100.00 9.409773e-03
52300.00 9.335318e-03
52500.00 9.260339e-03
52700.00 9.183314e-03
52900.00 9.102698e-03
53100.00 9.017131e-03
53300.00 8.925271e-03
53500.00 8.825897e-03
53700.00 8.718009e-03
53900.00 8.600548e-03
54100.00 8.472756e-03
54300.00 8.336326e-03
54500.00 8.304483e-03
54700.00 8.176100e-03
54900.00 8.104002e-03
55100.00 8.005344e-03
55300.00 8.022583e-03
55500.00 7.830535e-03
55700.00 7.815579e-03
55900.00 7.701577e-03
56100.00 7.653604e-03
56300.00 7.526717e-03
56500.00 7.495622e-03
56700.00 7.417011e-03
56900.00 7.298954e-03
57100.00 7.277498e-03
57300.00 7.197249e-03
57500.00 7.121040e-03
57700.00 7.043208e-03
57900.00 6.999989e-03
58100.00 6.906840e-03
58300.00 6.844279e-03
58500.00 6.779308e-03
58700.00 6.688538e-03
58900.00 6.631610e-03
59100.00 6.571436e-03
59300.00 6.516092e-03
59500.00 6.438196e-03
59700.00 6.394128e-03
59900.00 6.331507e-03
60100.00 6.270516e-03
60300.00 6.210307e-03
60500.00 6.134803e-03
60700.00 6.080217e-03
60900.00 6.020809e-03
61100.00 5.957356e-03
61300.00 5.912440e-03
61500.00 5.862682e-03
61700.00 5.816949e-03
61900.00 6.515349e-03
62100.00 7.036831e-03
62300.00 7.136609e-03
62500.00 6.863920e-03
62700.00 6.386977e-03
62900.00 5.795512e-03
63100.00 5.445908e-03
63300.00 5.411416e-03
63500.00 5.357583e-03
63700.00 5.322285e-03
63900.00 5.264412e-03
64200.00 5.201774e-03
64600.00 5.111002e-03
65000.00 5.025855e-03
65400.00 4.943907e-03
65800.00 4.869213e-03
66200.00 4.788867e-03
66600.00 4.709307e-03
67000.00 4.628117e-03
67400.00 4.546926e-03
67800.00 4.469745e-03
68200.00 4.391745e-03
68600.00 4.321003e-03
69000.00 4.247026e-03
69400.00 4.177871e-03
69800.00 4.110325e-03
70200.00 4.041151e-03
70600.00 3.978430e-03
71000.00 3.914881e-03
71400.00 3.854561e-03
71800.00 3.794232e-03
72200.00 4.354660e-03
72600.00 4.065007e-03
73000.00 4.228449e-03
73400.00 4.113072e-03
73800.00 3.815145e-03
74200.00 4.302625e-03
74600.00 4.795814e-03
75000.00 5.397831e-03
75400.00 5.843741e-03
75800.00 5.206269e-03
76200.00 5.662516e-03
76600.00 5.788022e-03
77000.00 5.700601e-03
77400.00 5.426654e-03
77800.00 5.346625e-03
78200.00 5.287641e-03
78600.00 5.253198e-03
79000.00 5.104349e-03
79400.00 4.838216e-03
79800.00 4.408165e-03
80200.00 4.015669e-03
80600.00 3.660208e-03
81000.00 3.311147e-03
81400.00 3.121472e-03
81800.00 2.999868e-03
82200.00 2.929958e-03
82600.00 2.879494e-03
83000.00 2.846080e-03
83400.00 2.844441e-03
83800.00 2.887455e-03
84200.00 2.990489e-03
84600.00 3.019967e-03
85000.00 3.060466e-03
85400.00 3.125833e-03
85800.00 3.209144e-03
86200.00 3.255698e-03
86600.00 3.187774e-03
87000.00 2.985008e-03
87400.00 2.766535e-03
87800.00 2.568846e-03
88200.00 2.339381e-03
88600.00 2.131238e-03
89000.00 1.947804e-03
89400.00 1.800257e-03
89800.00 1.694355e-03
90200.00 1.711887e-03
90600.00 1.695970e-03
91000.00 1.635888e-03
91400.00 1.493221e-03
91800.00 1.474669e-03
92200.00 1.457738e-03
92600.00 1.439984e-03
93000.00 1.424671e-03
93400.00 1.408536e-03
93800.00 1.394832e-03
94200.00 1.387179e-03
94600.00 1.374193e-03
95000.00 1.356948e-03
95400.00 1.345653e-03
95800.00 1.335178e-03
96200.00 1.383600e-03
96600.00 1.375325e-03
97000.00 1.418894e-03
97000.00 1.418894e-03
97400.00 1.462953e-03
97800.00 1.478493e-03
98200.00 1.397431e-03
98231.60 1.391371e-03
98600.00 1.360197e-03
99000.00 1.395415e-03
99400.00 1.414797e-03
99478.80 1.417704e-03
99800.00 1.427852e-03
100000.00 1.429523e-03
100742.00 1.432875e-03
102021.00 1.473552e-03
103316.00 1.459984e-03
104628.00 1.443969e-03
105957.00 1.587690e-03
107302.00 1.714927e-03
108665.00 1.652458e-03
110000.00 1.890969e-03
110044.00 1.906730e-03
111442.00 2.351609e-03
112857.00 4.420392e-03
114289.00 3.178307e-03
115741.00 2.191794e-03
117210.00 1.671170e-03
118699.00 1.528624e-03
120000.00 1.650722e-03
120206.00 1.656391e-03
121732.00 1.428256e-03
123278.00 1.517301e-03
124843.00 1.618183e-03
126428.00 1.774109e-03
128033.00 2.228202e-03
129659.00 1.209694e-03
130000.00 1.041750e-03
131305.00 8.647874e-04
132972.00 8.718163e-04
134661.00 7.781397e-04
136371.00 7.679277e-04
138102.00 6.236207e-04
139856.00 6.749662e-04
140000.00 6.662262e-04
141631.00 6.679653e-04
143430.00 6.513229e-04
145251.00 5.022953e-04
147095.00 7.135402e-04
148963.00 6.712977e-04
150000.00 6.672721e-04
150854.00 6.559030e-04
152770.00 6.708176e-04
154710.00 8.242630e-04
156674.00 7.005910e-04
158663.00 7.068260e-04
160000.00 7.086200e-04
160678.00 7.160810e-04
162718.00 8.688034e-04
164784.00 1.046718e-03
166876.00 9.399403e-04
168995.00 1.068603e-03
170000.00 1.176806e-03
171141.00 1.049571e-03
173314.00 9.561449e-04
175515.00 7.311289e-04
177743.00 6.691640e-04
180000.00 5.847628e-04
180000.00 5.847628e-04
190000.00 5.160382e-04
200000.00 4.558246e-04
210000.00 4.527136e-04
220000.00 4.543371e-04
230000.00 4.476173e-04
240000.00 4.458059e-04
250000.00 4.352285e-04
260000.00 4.370387e-04
270000.00 4.595405e-04
280000.00 4.857654e-04
300000.00 5.365973e-04
320000.00 6.141794e-04
340000.00 6.957484e-04
360000.00 7.904409e-04
380000.00 8.883950e-04
400000.00 9.672476e-04
420000.00 1.027416e-03
440000.00 1.087878e-03
460000.00 1.153916e-03
480000.00 1.220098e-03
500000.00 1.287790e-03
520000.00 1.356432e-03
540000.00 1.425228e-03
560000.00 1.495299e-03
580000.00 1.542143e-03
600000.00 1.535614e-03
620000.00 1.529264e-03
640000.00 1.522381e-03
660000.00 1.506034e-03
680000.00 1.469029e-03
700000.00 1.432275e-03
800000.00 1.266752e-03
900000.00 1.055003e-03
1000000.00 8.282320e-04
1100000.00 6.577537e-04
1200000.00 5.316223e-04
1300000.00 4.234914e-04
1400000.00 3.305409e-04
1500000.00 2.670701e-04
1599000.00 2.103542e-04
3000000.00 1.739204e-05
8000000.00 1.347549e-07
12000000.00 1.489065e-08
12720000.00 1.001451e-08
14470000.00 4.868855e-09
16460000.00 2.355123e-09
18730000.00 1.134161e-09
21310000.00 5.443010e-10
24250000.00 2.603213e-10
27590000.00 1.241465e-10
31390000.00 5.909454e-11
35720000.00 2.806464e-11
40640000.00 1.330982e-11
46240000.00 6.303890e-12
52610000.00 2.982291e-12
# Attenuated SED (Av=0.5)
1005.00 1.643247e-02
1015.00 1.619480e-02
1025.00 9.894478e-03
1035.00 1.279345e-02
1045.00 2.093604e-02
1055.00 2.180047e-02
1065.00 1.851205e-02
1075.00 2.141044e-02
1085.00 1.761529e-02
1095.00 2.248488e-02
1105.00 2.343272e-02
1115.00 2.308686e-02
1125.00 2.247158e-02
1135.00 2.704688e-02
1145.00 2.501681e-02
1155.00 2.722988e-02
1165.00 2.876583e-02
1175.00 2.316107e-02
1185.00 2.754089e-02
1195.00 1.656408e-02
1205.00 1.422048e-02
1215.00 1.021796e-02
1225.00 1.745052e-02
1235.00 2.936952e-02
1245.00 3.432158e-02
1255.00 3.269519e-02
1265.00 2.553680e-02
1275.00 3.809228e-02
1285.00 4.143579e-02
1295.00 3.289203e-02
1305.00 3.035918e-02
1315.00 3.995017e-02
1325.00 3.938057e-02
1335.00 3.311979e-02
1345.00 4.265377e-02
1355.00 4.119453e-02
1365.00 3.624178e-02
1375.00 3.981086e-02
1385.00 4.058117e-02
1395.00 3.847947e-02
1405.00 3.890737e-02
1415.00 3.765656e-02
1425.00 3.966364e-02
1435.00 3.817643e-02
1442.00 4.109314e-02
1447.00 4.275878e-02
1455.00 4.119320e-02
1465.00 3.785684e-02
1475.00 3.711304e-02
1485.00 3.873117e-02
1495.00 4.013844e-02
1505.00 3.851770e-02
1512.00 3.408030e-02
1517.00 3.723301e-02
1525.00 3.434853e-02
1535.00 2.996783e-02
1545.00 3.529353e-02
1555.00 3.258935e-02
1565.00 3.196183e-02
1575.00 3.381884e-02
1585.00 3.622431e-02
1595.00 3.736420e-02
1605.00 3.583508e-02
1615.00 3.609863e-02
1625.00 3.343396e-02
1635.00 3.548134e-02
1645.00 3.623674e-02
1655.00 3.235735e-02
1665.00 3.607332e-02
1672.00 3.007326e-02
1677.00 3.580181e-02
1685.00 3.865384e-02
1695.00 3.602264e-02
1705.00 3.403837e-02
1715.00 3.214604e-02
1725.00 3.190324e-02
1735.00 3.424164e-02
1745.00 3.356916e-02
1755.00 3.668366e-02
1765.00 3.215263e-02
1775.00 3.416233e-02
1785.00 3.448751e-02
1795.00 3.755650e-02
1805.00 3.681844e-02
1815.00 3.450165e-02
1825.00 3.455010e-02
1835.00 3.301499e-02
1845.00 3.013301e-02
1855.00 3.030548e-02
1865.00 3.143046e-02
1875.00 3.416249e-02
1885.00 3.186610e-02
1895.00 3.116611e-02
1905.00 3.201975e-02
1915.00 3.148499e-02
1925.00 3.117450e-02
1935.00 3.111857e-02
1945.00 3.298135e-02
1955.00 3.140571e-02
1967.00 3.447820e-02
1976.00 3.505388e-02
1984.00 3.333425e-02
1995.00 3.218401e-02
2005.00 3.267800e-02
2015.00 3.121740e-02
2025.00 3.250069e-02
2035.00 3.155885e-02
2045.00 3.320170e-02
2055.00 3.145879e-02
2065.00 3.139261e-02
2074.00 3.389751e-02
2078.00 3.434808e-02
2085.00 3.571851e-02
2095.00 3.366324e-02
2105.00 3.312129e-02
2115.00 3.392470e-02
2125.00 3.392035e-02
2135.00 3.066232e-02
2145.00 3.333602e-02
2155.00 3.423658e-02
2165.00 3.219740e-02
2175.00 3.188156e-02
2185.00 3.272253e-02
2195.00 3.430080e-02
2205.00 3.297499e-02
2215.00 3.001394e-02
2225.00 2.984338e-02
2235.00 3.404895e-02
2245.00 3.181009e-02
2255.00 2.907607e-02
2265.00 2.931651e-02
2275.00 3.078252e-02
2285.00 3.358265e-02
2295.00 3.097530e-02
2305.00 3.179514e-02
2315.00 2.950698e-02
2325.00 2.271407e-02
2335.00 2.604459e-02
2345.00 2.358955e-02
2355.00 2.882303e-02
2365.00 2.382892e-02
2375.00 2.593793e-02
2385.00 2.198461e-02
2395.00 2.468168e-02
2405.00 2.370023e-02
2415.00 2.492887e-02
2425.00 2.979558e-02
2435.00 2.889243e-02
2445.00 3.208451e-02
2455.00 3.210740e-02
2465.00 3.065529e-02
2475.00 2.856017e-02
2485.00 2.652734e-02
2495.00 2.680204e-02
2505.00 3.235190e-02
2513.00 2.477927e-02
2518.00 2.433204e-02
2525.00 2.343238e-02
2535.00 2.635588e-02
2545.00 2.634334e-02
2555.00 3.399619e-02
2565.00 3.004028e-02
2575.00 3.457583e-02
2585.00 3.284540e-02
2595.00 3.144202e-02
2605.00 2.917323e-02
2615.00 2.800086e-02
2625.00 3.225529e-02
2635.00 4.146754e-02
2645.00 5.045446e-02
2655.00 6.293668e-02
2665.00 4.570370e-02
2675.00 5.012272e-02
2685.00 5.503770e-02
2695.00 4.424395e-02
2705.00 5.118754e-02
2715.00 4.143888e-02
2725.00 3.646641e-02
2735.00 4.264223e-02
2745.00 3.082545e-02
2755.00 3.575425e-02
2765.00 4.210383e-02
2775.00 4.465565e-02
2785.00 3.428843e-02
2795.00 2.172643e-02
2805.00 2.466086e-02
2815.00 4.200039e-02
2825.00 5.205151e-02
2835.00 4.853184e-02
2845.00 3.914846e-02
2855.00 3.061402e-02
2865.00 4.807490e-02
2875.00 5.990040e-02
2885.00 5.717524e-02
2895.00 6.692863e-02
2910.00 8.746234e-02
2930.00 7.783954e-02
2950.00 7.241875e-02
2970.00 7.453404e-02
2990.00 7.575648e-02
3010.00 7.531278e-02
3030.00 8.073950e-02
3050.00 8.363830e-02
3070.00 9.185079e-02
3090.00 8.956616e-02
3110.00 1.040017e-01
3130.00 9.649634e-02
3150.00 9.810988e-02
3170.00 1.074439e-01
3190.00 9.418610e-02
3210.00 1.029242e-01
3230.00 8.943634e-02
3250.00 1.225854e-01
3270.00 1.424744e-01
3290.00 1.411278e-01
3310.00 1.314445e-01
3330.00 1.360065e-01
3350.00 1.314826e-01
3370.00 1.000356e-01
3390.00 1.128850e-01
3410.00 1.162215e-01
3430.00 1.232152e-01
3450.00 1.283279e-01
3470.00 1.333118e-01
3490.00 1.506509e-01
3510.00 1.619137e-01
3530.00 1.454896e-01
3550.00 1.679675e-01
3570.00 1.152776e-01
3590.00 1.181660e-01
3610.00 1.492129e-01
3630.00 1.589209e-01
3640.00 1.664853e-01
3650.00 1.884129e-01
3670.00 2.022736e-01
3690.00 1.801438e-01
3710.00 1.903328e-01
3730.00 1.283340e-01
3750.00 1.494410e-01
3770.00 1.934361e-01
3790.00 2.033110e-01
3810.00 1.940303e-01
3830.00 1.170390e-01
3850.00 1.598531e-01
3870.00 1.621100e-01
3890.00 1.847708e-01
3910.00 2.359202e-01
3930.00 1.279987e-01
3950.00 2.071132e-01
3970.00 1.400430e-01
3990.00 3.015844e-01
4010.00 3.355670e-01
4030.00 3.307925e-01
4050.00 3.183032e-01
4070.00 2.988990e-01
4090.00 3.644890e-01
4110.00 3.377790e-01
4130.00 3.372862e-01
4150.00 3.311309e-01
4170.00 3.380560e-01
4190.00 3.315486e-01
4210.00 3.359990e-01
4230.00 3.172702e-01
4250.00 3.418197e-01
4270.00 3.219350e-01
4290.00 3.035357e-01
4310.00 2.659559e-01
4330.00 3.775289e-01
4350.00 3.764132e-01
4370.00 4.180714e-01
4390.00 3.697970e-01
4410.00 3.927126e-01
4430.00 4.258200e-01
4450.00 4.314517e-01
4470.00 4.638455e-01
4490.00 4.771972e-01
4510.00 5.478933e-01
4530.00 4.748959e-01
4550.00 5.006749e-01
4570.00 5.439661e-01
4590.00 5.153933e-01
4610.00 5.294587e-01
4630.00 5.182212e-01
4650.00 5.258694e-01
4670.00 5.529947e-01
4690.00 5.449540e-01
4710.00 5.280292e-01
4730.00 5.469202e-01
4750.00 5.663547e-01
4770.00 5.572966e-01
4790.00 5.613298e-01
4810.00 5.634909e-01
4830.00 5.849785e-01
4850.00 5.522239e-01
4870.00 5.051176e-01
4890.00 5.669142e-01
4910.00 5.690634e-01
4930.00 5.569203e-01
4950.00 5.829087e-01
4970.00 5.707244e-01
4990.00 5.301988e-01
5010.00 4.991042e-01
5030.00 5.347817e-01
5050.00 5.324923e-01
5070.00 5.577352e-01
5090.00 5.254411e-01
5110.00 5.420189e-01
5130.00 5.221900e-01
5150.00 5.003266e-01
5170.00 4.568420e-01
5190.00 4.774468e-01
5210.00 5.248321e-01
5230.00 5.754369e-01
5250.00 6.060608e-01
5270.00 5.293469e-01
5290.00 6.182536e-01
5310.00 6.634605e-01
5330.00 5.754871e-01
5350.00 6.376519e-01
5370.00 6.338640e-01
5390.00 6.200834e-01
5410.00 6.112400e-01
5430.00 6.218676e-01
5450.00 6.400439e-01
5470.00 6.286520e-01
5490.00 6.353212e-01
5510.00 6.268885e-01
5530.00 6.557746e-01
5550.00 6.675590e-01
5570.00 6.530415e-01
5590.00 6.349020e-01
5610.00 6.614347e-01
5630.00 6.590180e-01
5650.00 6.729178e-01
5670.00 6.561921e-01
5690.00 6.808612e-01
5710.00 6.558740e-01
5730.00 7.191348e-01
5750.00 6.915383e-01
5770.00 6.993996e-01
5790.00 6.706257e-01
5810.00 7.027708e-01
5830.00 7.267169e-01
5850.00 7.019771e-01
5870.00 7.010488e-01
5890.00 6.048525e-01
5910.00 6.892526e-01
5930.00 6.987171e-01
5950.00 7.003632e-01
5970.00 7.151081e-01
5990.00 7.036490e-01
6010.00 6.953017e-01
6030.00 7.179715e-01
6050.00 7.338588e-01
6070.00 7.328973e-01
6090.00 7.059995e-01
6110.00 7.107999e-01
6130.00 6.683907e-01
6150.00 6.906623e-01
6170.00 6.470153e-01
6190.00 6.948892e-01
6210.00 6.884627e-01
6230.00 6.654395e-01
6250.00 6.450224e-01
6270.00 6.792153e-01
6290.00 6.952521e-01
6310.00 6.755669e-01
6330.00 6.873680e-01
6350.00 6.900623e-01
6370.00 6.873614e-01
6390.00 7.040734e-01
6410.00 6.911076e-01
6430.00 6.991975e-01
6450.00 6.948370e-01
6470.00 6.937144e-01
6490.00 6.811650e-01
6510.00 7.099430e-01
6530.00 7.109940e-01
6550.00 6.945659e-01
6570.00 6.594913e-01
6590.00 7.020707e-01
6610.00 7.102139e-01
6630.00 7.024493e-01
6650.00 7.034520e-01
6670.00 6.862725e-01
6690.00 6.960616e-01
6710.00 6.672134e-01
6730.00 6.875025e-01
6750.00 6.757164e-01
6770.00 6.805284e-01
6790.00 6.725748e-01
6810.00 6.779378e-01
6830.00 6.888807e-01
6850.00 6.702896e-01
6870.00 6.840285e-01
6890.00 6.961175e-01
6910.00 6.959211e-01
6930.00 6.917901e-01
6950.00 6.938163e-01
6970.00 7.053979e-01
6990.00 7.034985e-01
7010.00 6.953816e-01
7030.00 7.126316e-01
7050.00 7.163620e-01
7070.00 6.912460e-01
7090.00 6.666272e-01
7110.00 6.487451e-01
7130.00 6.336534e-01
7150.00 6.315923e-01
7170.00 6.426130e-01
7190.00 6.274404e-01
7210.00 6.447484e-01
7230.00 6.632367e-01
7250.00 6.703233e-01
7270.00 6.774222e-01
7290.00 6.702015e-01
7310.00 6.933770e-01
7330.00 6.970647e-01
7350.00 7.070847e-01
7370.00 7.292222e-01
7390.00 7.167975e-01
7410.00 7.181979e-01
7430.00 7.392521e-01
7450.00 7.389319e-01
7470.00 7.542469e-01
7490.00 7.545208e-01
7510.00 7.640692e-01
7530.00 7.794547e-01
7550.00 7.867216e-01
7570.00 7.846742e-01
7590.00 7.651167e-01
7610.00 7.501873e-01
7630.00 7.311324e-01
7650.00 7.131959e-01
7670.00 6.747210e-01
7690.00 6.936153e-01
7710.00 6.808516e-01
7730.00 6.839220e-01
7750.00 6.799343e-01
7770.00 6.906535e-01
7790.00 6.972657e-01
7810.00 6.979868e-01
7830.00 6.927986e-01
7850.00 6.840491e-01
7870.00 6.983581e-01
7890.00 6.901790e-01
7910.00 6.742704e-01
7930.00 6.785081e-01
7950.00 6.738373e-01
7970.00 6.994879e-01
7990.00 7.007754e-01
8010.00 7.109982e-01
8030.00 7.158716e-01
8050.00 7.177623e-01
8070.00 7.304116e-01
8090.00 7.257300e-01
8110.00 7.360084e-01
8130.00 7.618923e-01
8150.00 7.740102e-01
8170.00 7.837528e-01
8190.00 7.556297e-01
8210.00 7.479165e-01
8230.00 7.534324e-01
8250.00 7.529231e-01
8270.00 7.608616e-01
8290.00 7.524990e-01
8310.00 7.265881e-01
8330.00 7.205928e-01
8350.00 7.218496e-01
8370.00 7.267428e-01
8390.00 7.000951e-01
8410.00 7.268285e-01
8430.00 6.885771e-01
8450.00 6.709375e-01
8470.00 6.721356e-01
8490.00 6.769896e-01
8510.00 6.489140e-01
8530.00 6.769452e-01
8550.00 6.213235e-01
8570.00 7.031797e-01
8590.00 6.964378e-01
8610.00 7.062182e-01
8630.00 7.215291e-01
8650.00 7.233647e-01
8670.00 6.496701e-01
8690.00 7.079826e-01
8710.00 7.374789e-01
8730.00 7.454767e-01
8750.00 7.405458e-01
8770.00 7.553342e-01
8790.00 7.664421e-01
8810.00 7.516241e-01
8830.00 7.602666e-01
8850.00 7.602606e-01
8870.00 7.292961e-01
8890.00 7.397912e-01
8910.00 7.496797e-01
8930.00 7.366197e-01
8950.00 7.396846e-01
8970.00 7.433713e-01
8990.00 7.458179e-01
9010.00 7.246098e-01
9030.00 7.544509e-01
9050.00 7.799718e-01
9070.00 7.818195e-01
9090.00 7.680500e-01
9110.00 7.792560e-01
9130.00 7.942263e-01
9150.00 7.891996e-01
9170.00 7.897913e-01
9190.00 7.997776e-01
9210.00 7.671290e-01
9230.00 7.450987e-01
9250.00 7.425075e-01
9270.00 7.480821e-01
9290.00 7.360461e-01
9310.00 7.416178e-01
9330.00 7.440463e-01
9350.00 7.414288e-01
9370.00 7.287120e-01
9390.00 7.443872e-01
9410.00 7.316475e-01
9430.00 7.511350e-01
9450.00 7.409084e-01
9470.00 7.604248e-01
9490.00 7.628577e-01
9510.00 7.481727e-01
9530.00 7.544025e-01
9550.00 7.422258e-01
9570.00 7.503616e-01
9590.00 7.654980e-01
9610.00 7.545674e-01
9630.00 7.608112e-01
9650.00 7.453991e-01
9670.00 7.471762e-01
9690.00 7.604366e-01
9710.00 7.475392e-01
9730.00 7.397325e-01
9750.00 7.383056e-01
9770.00 7.432712e-01
9790.00 7.322387e-01
9810.00 7.532135e-01
9830.00 7.453731e-01
9850.00 7.522701e-01
9870.00 7.476239e-01
9890.00 7.474641e-01
9910.00 7.383043e-01
9930.00 7.445631e-01
9950.00 7.476114e-01
9970.00 7.487287e-01
9990.00 7.472685e-01
10030.00 7.482071e-01
10070.00 7.401003e-01
10130.00 7.498798e-01
10170.00 7.417274e-01
10220.00 7.460926e-01
10280.00 7.493848e-01
10320.00 7.418137e-01
10380.00 7.379065e-01
10430.00 7.422439e-01
10480.00 7.315439e-01
10520.00 7.232174e-01
10580.00 7.080528e-01
10630.00 7.018219e-01
10680.00 6.968784e-01
10720.00 7.029087e-01
10780.00 6.994437e-01
10820.00 6.896387e-01
10870.00 6.885790e-01
10920.00 6.888289e-01
10980.00 6.799738e-01
11020.00 6.747100e-01
11080.00 6.633266e-01
11130.00 6.621113e-01
11170.00 6.580532e-01
11220.00 6.587455e-01
11280.00 6.511128e-01
11330.00 6.512463e-01
11380.00 6.461501e-01
11430.00 6.396935e-01
11470.00 6.489611e-01
11530.00 6.474689e-01
11570.00 6.402788e-01
11620.00 6.305259e-01
11670.00 6.305822e-01
11730.00 6.332744e-01
11770.00 6.181092e-01
11830.00 6.120478e-01
11870.00 6.010181e-01
11920.00 6.108361e-01
11980.00 5.907376e-01
12030.00 6.032067e-01
12070.00 5.989000e-01
12120.00 6.000893e-01
12180.00 6.018788e-01
12230.00 5.985572e-01
12270.00 5.944137e-01
12320.00 5.903160e-01
12370.00 5.893510e-01
12430.00 5.797258e-01
12480.00 5.782569e-01
12530.00 5.731399e-01
12580.00 5.717182e-01
12620.00 5.683197e-01
12670.00 5.636450e-01
12720.00 5.641951e-01
12780.00 5.645052e-01
12830.00 5.468820e-01
12880.00 5.553527e-01
12920.00 5.490619e-01
12980.00 5.550829e-01
13020.00 5.482863e-01
13080.00 5.498665e-01
13130.00 5.369650e-01
13180.00 5.359934e-01
13230.00 5.361289e-01
13280.00 5.265102e-01
13320.00 5.258381e-01
13380.00 5.201876e-01
13430.00 5.216198e-01
13470.00 5.170915e-01
13520.00 5.129225e-01
13570.00 5.058717e-01
13630.00 5.033051e-01
13670.00 5.060989e-01
13730.00 5.078721e-01
13770.00 5.067337e-01
13820.00 5.072935e-01
13880.00 5.024453e-01
13930.00 4.790533e-01
13970.00 4.756984e-01
14020.00 4.711443e-01
14080.00 4.749828e-01
14120.00 4.691380e-01
14180.00 4.739644e-01
14230.00 4.695224e-01
14280.00 4.620964e-01
14330.00 4.702470e-01
14380.00 4.743643e-01
14420.00 4.635114e-01
14480.00 4.714595e-01
14520.00 4.680457e-01
14570.00 4.705991e-01
14620.00 4.604122e-01
14670.00 4.576161e-01
14720.00 4.541720e-01
14770.00 4.573536e-01
14830.00 4.601745e-01
14880.00 4.551447e-01
14920.00 4.674826e-01
14980.00 4.637998e-01
15030.00 4.563210e-01
15070.00 4.586513e-01
15120.00 4.677840e-01
15170.00 4.696108e-01
15220.00 4.697876e-01
15280.00 4.731143e-01
15330.00 4.724967e-01
15370.00 4.715986e-01
15430.00 4.683035e-01
15480.00 4.696917e-01
15520.00 4.657579e-01
15570.00 4.540189e-01
15620.00 4.578482e-01
15670.00 4.566264e-01
15720.00 4.665986e-01
15780.00 4.389717e-01
15830.00 4.408397e-01
15870.00 4.406258e-01
15930.00 4.543577e-01
15980.00 4.457212e-01
16050.00 4.477008e-01
16150.00 4.550712e-01
16250.00 4.425281e-01
16350.00 4.561564e-01
16450.00 4.382488e-01
16550.00 4.489727e-01
16650.00 4.383788e-01
16750.00 4.370451e-01
16850.00 4.305756e-01
16950.00 4.319293e-01
17050.00 4.235932e-01
17150.00 4.169221e-01
17250.00 4.089081e-01
17350.00 3.971167e-01
17450.00 3.918544e-01
17550.00 3.839952e-01
17650.00 3.759660e-01
17750.00 3.654770e-01
17850.00 3.591059e-01
17950.00 3.498294e-01
18050.00 3.404564e-01
18150.00 3.345497e-01
18250.00 3.300395e-01
18350.00 3.256644e-01
18450.00 3.173341e-01
18550.00 3.139768e-01
18650.00 3.059857e-01
18750.00 2.987981e-01
18850.00 2.985417e-01
18950.00 2.882634e-01
19050.00 2.918826e-01
19150.00 2.869667e-01
19250.00 2.836142e-01
19350.00 2.762777e-01
19450.00 2.699766e-01
19550.00 2.686223e-01
19650.00 2.643289e-01
19750.00 2.571677e-01
19850.00 2.547380e-01
19950.00 2.520763e-01
20050.00 2.510670e-01
20150.00 2.477901e-01
20250.00 2.425409e-01
20350.00 2.405328e-01
20450.00 2.399586e-01
20550.00 2.364266e-01
20650.00 2.338735e-01
20750.00 2.321506e-01
20850.00 2.292826e-01
20950.00 2.255739e-01
21050.00 2.258100e-01
21150.00 2.220912e-01
21250.00 2.198109e-01
21350.00 2.193542e-01
21450.00 2.166846e-01
21550.00 2.137823e-01
21650.00 2.104154e-01
21750.00 2.077300e-01
21850.00 2.059564e-01
21950.00 2.037209e-01
22050.00 1.988041e-01
22150.00 1.993141e-01
22250.00 1.948438e-01
22350.00 1.926673e-01
22450.00 1.904868e-01
22550.00 1.884565e-01
22650.00 1.845769e-01
22750.00 1.842290e-01
22850.00 1.800333e-01
22950.00 1.535933e-01
23050.00 1.627705e-01
23150.00 1.619423e-01
23250.00 1.399902e-01
23350.00 1.492496e-01
23450.00 1.439333e-01
23550.00 1.292657e-01
23650.00 1.386101e-01
23750.00 1.334317e-01
23850.00 1.216711e-01
23950.00 1.284717e-01
24050.00 1.258308e-01
24150.00 1.155949e-01
24250.00 1.199207e-01
24350.00 1.168823e-01
24450.00 1.107362e-01
24550.00 1.086200e-01
24650.00 1.096083e-01
24750.00 1.049242e-01
24850.00 9.572393e-02
24950.00 9.491682e-02
25050.00 9.620990e-02
25150.00 9.018339e-02
25250.00 9.240969e-02
25350.00 9.214338e-02
25450.00 9.008245e-02
25550.00 8.997001e-02
25650.00 9.016927e-02
25750.00 9.099330e-02
25850.00 8.767606e-02
25950.00 8.826459e-02
26050.00 8.908765e-02
26150.00 8.740723e-02
26250.00 8.619480e-02
26350.00 8.639068e-02
26450.00 8.533272e-02
26550.00 8.466519e-02
26650.00 8.266368e-02
26750.00 8.426938e-02
26850.00 8.336443e-02
26950.00 8.080895e-02
27050.00 8.131535e-02
27150.00 8.040690e-02
27250.00 8.036253e-02
27350.00 7.856363e-02
27450.00 7.850193e-02
27550.00 7.822756e-02
27650.00 7.704705e-02
27750.00 7.549474e-02
27850.00 7.581716e-02
27950.00 7.550873e-02
28050.00 7.427668e-02
28150.00 7.319340e-02
28250.00 7.308023e-02
28350.00 7.240587e-02
28450.00 7.163618e-02
28550.00 7.094457e-02
28650.00 7.059230e-02
28750.00 6.984392e-02
28850.00 6.876255e-02
28950.00 6.821049e-02
29050.00 6.781617e-02
29150.00 6.721551e-02
29250.00 6.570282e-02
29350.00 6.590130e-02
29450.00 6.485444e-02
29550.00 6.448125e-02
29650.00 6.409171e-02
29750.00 6.324122e-02
29850.00 6.262811e-02
29950.00 6.209400e-02
30050.00 6.133678e-02
30150.00 6.129439e-02
30250.00 6.033716e-02
30350.00 5.980102e-02
30450.00 5.993271e-02
30550.00 5.897361e-02
30650.00 5.867494e-02
30750.00 5.825630e-02
30850.00 5.751846e-02
30950.00 5.753740e-02
31050.00 5.728512e-02
31150.00 5.623474e-02
31250.00 5.626882e-02
31350.00 5.568820e-02
31450.00 5.535462e-02
31550.00 5.502862e-02
31650.00 5.431088e-02
31750.00 5.404023e-02
31850.00 5.368121e-02
31950.00 5.341789e-02
32100.00 5.276233e-02
32300.00 5.198564e-02
32500.00 5.123964e-02
32700.00 5.030014e-02
32900.00 5.199960e-02
33100.00 5.120314e-02
33300.00 4.795426e-02
33500.00 4.723413e-02
33700.00 4.635204e-02
33900.00 4.562149e-02
34100.00 4.475305e-02
34300.00 4.412490e-02
34500.00 4.343944e-02
34700.00 4.262396e-02
34900.00 4.187993e-02
35100.00 4.118332e-02
35300.00 4.034044e-02
35500.00 3.970655e-02
35700.00 3.895044e-02
35900.00 3.821758e-02
36100.00 3.778320e-02
36300.00 3.701638e-02
36500.00 3.632950e-02
36700.00 3.566605e-02
36900.00 3.492093e-02
37100.00 3.428023e-02
37300.00 3.376851e-02
37500.00 3.302097e-02
37700.00 3.248346e-02
37900.00 3.183179e-02
38100.00 3.143935e-02
38300.00 3.094889e-02
38500.00 3.041729e-02
38700.00 2.972233e-02
38900.00 2.926265e-02
39100.00 2.872927e-02
39300.00 2.827671e-02
39500.00 2.757920e-02
39700.00 2.715817e-02
39900.00 2.652475e-02
40100.00 2.623335e-02
40300.00 2.583541e-02
40500.00 2.525753e-02
40700.00 2.486690e-02
40900.00 2.442691e-02
41100.00 2.407637e-02
41300.00 2.365187e-02
41500.00 2.322707e-02
41700.00 2.279367e-02
41900.00 2.249893e-02
42100.00 2.203194e-02
42300.00 2.178586e-02
42500.00 2.137557e-02
42700.00 2.107971e-02
42900.00 1.999620e-02
43100.00 1.893657e-02
43300.00 1.894295e-02
43500.00 1.800541e-02
43700.00 1.755204e-02
43900.00 1.722148e-02
44100.00 1.649623e-02
44300.00 1.621446e-02
44500.00 1.594051e-02
44700.00 1.548549e-02
44900.00 1.539225e-02
45100.00 1.504367e-02
45300.00 1.471124e-02
45500.00 1.465854e-02
45700.00 1.452346e-02
45900.00 1.402569e-02
46100.00 1.407160e-02
46300.00 1.386200e-02
46500.00 1.363560e-02
46700.00 1.365661e-02
46900.00 1.340533e-02
47100.00 1.316194e-02
47300.00 1.317445e-02
47500.00 1.285656e-02
47700.00 1.276982e-02
47900.00 1.265814e-02
48100.00 1.237280e-02
48300.00 1.243461e-02
48500.00 1.217378e-02
48700.00 1.197905e-02
48900.00 1.181728e-02
49100.00 1.168019e-02
49300.00 1.155131e-02
49500.00 1.134770e-02
49700.00 1.132631e-02
49900.00 1.108946e-02
50100.00 1.087833e-02
50300.00 1.069348e-02
50500.00 1.053158e-02
50700.00 1.038924e-02
50900.00 1.026349e-02
51100.00 1.015173e-02
51300.00 1.005138e-02
51500.00 9.960190e-03
51700.00 9.875957e-03
51900.00 9.796633e-03
52100.00 9.720357e-03
52300.00 9.645225e-03
52500.00 9.569511e-03
52700.00 9.491639e-03
52900.00 9.410015e-03
53100.00 9.323229e-03
53300.00 9.229891e-03
53500.00 9.128736e-03
53700.00 9.018725e-03
53900.00 8.898759e-03
54100.00 8.768049e-03
54300.00 8.628342e-03
54500.00 8.596845e-03
54700.00 8.465370e-03
54900.00 8.392127e-03
55100.00 8.291341e-03
55300.00 8.310568e-03
55500.00 8.112956e-03
55700.00 8.098778e-03
55900.00 7.981935e-03
56100.00 7.933488e-03
56300.00 7.803204e-03
56500.00 7.772195e-03
56700.00 7.691892e-03
56900.00 7.570640e-03
57100.00 7.549555e-03
57300.00 7.467454e-03
57500.00 7.389512e-03
57700.00 7.309854e-03
57900.00 7.266093e-03
58100.00 7.170475e-03
58300.00 7.106581e-03
58500.00 7.040160e-03
58700.00 6.946915e-03
58900.00 6.888790e-03
59100.00 6.827269e-03
59300.00 6.770742e-03
59500.00 6.690756e-03
59700.00 6.645901e-03
59900.00 6.581740e-03
60100.00 6.519249e-03
60300.00 6.457548e-03
60500.00 6.379918e-03
60700.00 6.324017e-03
60900.00 6.263079e-03
61100.00 6.197911e-03
61300.00 6.152008e-03
61500.00 6.101048e-03
61700.00 6.054258e-03
61900.00 6.782043e-03
62100.00 7.325830e-03
62300.00 7.430672e-03
62500.00 7.147670e-03
62700.00 6.651865e-03
62900.00 6.036640e-03
63100.00 5.673209e-03
63300.00 5.637988e-03
63500.00 5.582599e-03
63700.00 5.546509e-03
63900.00 5.486876e-03
64200.00 5.422589e-03
64600.00 5.329256e-03
65000.00 5.241729e-03
65400.00 5.157482e-03
65800.00 5.080749e-03
66200.00 4.998067e-03
66600.00 4.916153e-03
67000.00 4.832487e-03
67400.00 4.748768e-03
67800.00 4.669190e-03
68200.00 4.588707e-03
68600.00 4.515764e-03
69000.00 4.439396e-03
69400.00 4.368026e-03
69800.00 4.298298e-03
70200.00 4.226829e-03
70600.00 4.162071e-03
71000.00 4.096411e-03
71400.00 4.034095e-03
71800.00 3.971735e-03
72200.00 4.559267e-03
72600.00 4.256821e-03
73000.00 4.428816e-03
73400.00 4.308781e-03
73800.00 3.997420e-03
74200.00 4.509019e-03
74600.00 5.026779e-03
75000.00 5.658808e-03
75400.00 6.127366e-03
75800.00 5.459916e-03
76200.00 5.939426e-03
76600.00 6.072116e-03
77000.00 5.981424e-03
77400.00 5.694943e-03
77800.00 5.611895e-03
78200.00 5.550903e-03
78600.00 5.515648e-03
79000.00 5.360231e-03
79400.00 5.081572e-03
79800.00 4.630625e-03
80200.00 4.218985e-03
80600.00 3.846125e-03
81000.00 3.479870e-03
81400.00 3.281031e-03
81800.00 3.153688e-03
82200.00 3.080654e-03
82600.00 3.028043e-03
83000.00 2.993344e-03
83400.00 2.992056e-03
83800.00 3.037739e-03
84200.00 3.146584e-03
84600.00 3.178050e-03
85000.00 3.221119e-03
85400.00 3.290374e-03
85800.00 3.378534e-03
86200.00 3.428012e-03
86600.00 3.356945e-03
87000.00 3.143839e-03
87400.00 2.914126e-03
87800.00 2.706246e-03
88200.00 2.464828e-03
88600.00 2.245813e-03
89000.00 2.052779e-03
89400.00 1.897520e-03
89800.00 1.786120e-03
90200.00 1.804826e-03
90600.00 1.788265e-03
91000.00 1.725124e-03
91400.00 1.574865e-03
91800.00 1.555486e-03
92200.00 1.537809e-03
92600.00 1.519259e-03
93000.00 1.503279e-03
93400.00 1.486426e-03
93800.00 1.472133e-03
94200.00 1.464222e-03
94600.00 1.450679e-03
95000.00 1.432635e-03
95400.00 1.420867e-03
95800.00 1.409962e-03
96200.00 1.461256e-03
96600.00 1.452674e-03
97000.00 1.498854e-03
97000.00 1.498854e-03
97400.00 1.545560e-03
97800.00 1.562143e-03
98200.00 1.476650e-03
98231.60 1.470258e-03
98600.00 1.437453e-03
99000.00 1.474824e-03
99400.00 1.495462e-03
99478.80 1.498565e-03
99800.00 1.509415e-03
100000.00 1.511258e-03
100742.00 1.515082e-03
102021.00 1.558580e-03
103316.00 1.544707e-03
104628.00 1.528228e-03
105957.00 1.680843e-03
107302.00 1.816085e-03
108665.00 1.750446e-03
110000.00 2.003664e-03
110044.00 2.020382e-03
111442.00 2.492493e-03
112857.00 4.686543e-03
114289.00 3.370614e-03
115741.00 2.325052e-03
117210.00 1.773258e-03
118699.00 1.622441e-03
120000.00 1.752435e-03
120206.00 1.758517e-03
121732.00 1.516714e-03
123278.00 1.611691e-03
124843.00 1.719289e-03
126428.00 1.885433e-03
128033.00 2.368611e-03
129659.00 1.286239e-03
130000.00 1.107725e-03
131305.00 9.197319e-04
132972.00 9.274301e-04
134661.00 8.279742e-04
136371.00 8.172997e-04
138102.00 6.638683e-04
139856.00 7.186917e-04
140000.00 7.093986e-04
141631.00 7.113976e-04
143430.00 6.938277e-04
145251.00 5.351923e-04
147095.00 7.604374e-04
148963.00 7.155720e-04
150000.00 7.113640e-04
150854.00 6.993100e-04
152770.00 7.153612e-04
154710.00 8.791772e-04
156674.00 7.474182e-04
158663.00 7.542218e-04
160000.00 7.562362e-04
160678.00 7.642493e-04
162718.00 9.274268e-04
164784.00 1.117563e-03
166876.00 1.003750e-03
168995.00 1.141364e-03
170000.00 1.257045e-03
171141.00 1.121244e-03
173314.00 1.021627e-03
175515.00 7.813428e-04
177743.00 7.152506e-04
180000.00 6.251474e-04
180000.00 6.251474e-04
190000.00 5.520826e-04
200000.00 4.879860e-04
210000.00 4.849460e-04
220000.00 4.869501e-04
230000.00 4.799865e-04
240000.00 4.782620e-04
250000.00 4.671103e-04
260000.00 4.692347e-04
270000.00 4.935710e-04
280000.00 5.219116e-04
300000.00 5.768713e-04
320000.00 6.606224e-04
340000.00 7.487057e-04
360000.00 8.509555e-04
380000.00 9.567606e-04
400000.00 1.042026e-03
420000.00 1.107177e-03
440000.00 1.172653e-03
460000.00 1.244146e-03
480000.00 1.315803e-03
500000.00 1.389096e-03
520000.00 1.463421e-03
540000.00 1.537919e-03
560000.00 1.613799e-03
580000.00 1.664612e-03
600000.00 1.657804e-03
620000.00 1.651173e-03
640000.00 1.643949e-03
660000.00 1.626490e-03
680000.00 1.586704e-03
700000.00 1.547169e-03
800000.00 1.368983e-03
900000.00 1.140544e-03
1000000.00 8.956362e-04
1100000.00 7.114465e-04
1200000.00 5.751285e-04
1300000.00 4.582224e-04
1400000.00 3.576984e-04
1500000.00 2.890474e-04
1599000.00 2.276880e-04
3000000.00 1.883902e-05
8000000.00 1.460428e-07
12000000.00 1.613967e-08
12720000.00 1.085465e-08
14470000.00 5.277442e-09
16460000.00 2.552815e-09
18730000.00 1.229386e-09
21310000.00 5.900109e-10
24250000.00 2.821869e-10
27590000.00 1.345758e-10
31390000.00 6.405967e-11
35720000.00 3.042292e-11
40640000.00 1.442837e-11
46240000.00 6.833719e-12
52610000.00 3.232968e-12
# Attenuated SED (Av=1.0)
1005.00 3.008683e-03
1015.00 3.038413e-03
1025.00 1.899955e-03
1035.00 2.511485e-03
1045.00 4.197319e-03
1055.00 4.459108e-03
1065.00 3.859548e-03
1075.00 4.545974e-03
1085.00 3.805854e-03
1095.00 4.939424e-03
1105.00 5.230148e-03
1115.00 5.231933e-03
1125.00 5.167189e-03
1135.00 6.306597e-03
1145.00 5.911745e-03
1155.00 6.517755e-03
1165.00 6.970659e-03
1175.00 5.679221e-03
1185.00 6.830324e-03
1195.00 4.153125e-03
1205.00 3.603196e-03
1215.00 2.615379e-03
1225.00 4.510410e-03
1235.00 7.662851e-03
1245.00 9.036568e-03
1255.00 8.684150e-03
1265.00 6.840512e-03
1275.00 1.028765e-02
1285.00 1.127968e-02
1295.00 9.022858e-03
1305.00 8.390194e-03
1315.00 1.112067e-02
1325.00 1.103903e-02
1335.00 9.347268e-03
1345.00 1.211765e-02
1355.00 1.177835e-02
1365.00 1.042707e-02
1375.00 1.152365e-02
1385.00 1.181625e-02
1395.00 1.126901e-02
1405.00 1.145851e-02
1415.00 1.115108e-02
1425.00 1.180845e-02
1435.00 1.142526e-02
1442.00 1.234237e-02
1447.00 1.287517e-02
1455.00 1.245334e-02
1465.00 1.150082e-02
1475.00 1.132898e-02
1485.00 1.187853e-02
1495.00 1.236687e-02
1505.00 1.192117e-02
1512.00 1.058062e-02
1517.00 1.158481e-02
1525.00 1.072448e-02
1535.00 9.396739e-03
1545.00 1.111319e-02
1555.00 1.030411e-02
1565.00 1.014679e-02
1575.00 1.077928e-02
1585.00 1.159147e-02
1595.00 1.200261e-02
1605.00 1.155542e-02
1615.00 1.168427e-02
1625.00 1.086199e-02
1635.00 1.156941e-02
1645.00 1.185848e-02
1655.00 1.062678e-02
1665.00 1.188898e-02
1672.00 9.935709e-03
1677.00 1.184882e-02
1685.00 1.282792e-02
1695.00 1.199544e-02
1705.00 1.137287e-02
1715.00 1.077640e-02
1725.00 1.073027e-02
1735.00 1.155436e-02
1745.00 1.136405e-02
1755.00 1.245814e-02
1765.00 1.095398e-02
1775.00 1.167523e-02
1785.00 1.182306e-02
1795.00 1.291492e-02
1805.00 1.269988e-02
1815.00 1.193687e-02
1825.00 1.198963e-02
1835.00 1.149115e-02
1845.00 1.051915e-02
1855.00 1.061050e-02
1865.00 1.103652e-02
1875.00 1.203065e-02
1885.00 1.125429e-02
1895.00 1.103857e-02
1905.00 1.137315e-02
1915.00 1.121479e-02
1925.00 1.113536e-02
1935.00 1.114638e-02
1945.00 1.184636e-02
1955.00 1.131150e-02
1967.00 1.245894e-02
1976.00 1.269799e-02
1984.00 1.210123e-02
1995.00 1.171830e-02
2005.00 1.193004e-02
2015.00 1.142718e-02
2025.00 1.192848e-02
2035.00 1.161335e-02
2045.00 1.224997e-02
2055.00 1.163723e-02
2065.00 1.164293e-02
2074.00 1.260122e-02
2078.00 1.278188e-02
2085.00 1.331578e-02
2095.00 1.258174e-02
2105.00 1.241076e-02
2115.00 1.274409e-02
2125.00 1.277467e-02
2135.00 1.157673e-02
2145.00 1.261775e-02
2155.00 1.299095e-02
2165.00 1.224755e-02
2175.00 1.215741e-02
2185.00 1.250885e-02
2195.00 1.314436e-02
2205.00 1.266718e-02
2215.00 1.155778e-02
2225.00 1.151997e-02
2235.00 1.317513e-02
2245.00 1.233843e-02
2255.00 1.130499e-02
2265.00 1.142570e-02
2275.00 1.202559e-02
2285.00 1.315059e-02
2295.00 1.215822e-02
2305.00 1.250937e-02
2315.00 1.163633e-02
2325.00 8.978405e-03
2335.00 1.031885e-02
2345.00 9.367828e-03
2355.00 1.147258e-02
2365.00 9.506580e-03
2375.00 1.037171e-02
2385.00 8.810998e-03
2395.00 9.914461e-03
2405.00 9.541828e-03
2415.00 1.005919e-02
2425.00 1.205008e-02
2435.00 1.171107e-02
2445.00 1.303405e-02
2455.00 1.307245e-02
2465.00 1.250898e-02
2475.00 1.167988e-02
2485.00 1.087250e-02
2495.00 1.100927e-02
2505.00 1.331810e-02
2513.00 1.021857e-02
2518.00 1.004508e-02
2525.00 9.688417e-03
2535.00 1.092084e-02
2545.00 1.093928e-02
2555.00 1.414765e-02
2565.00 1.252827e-02
2575.00 1.445072e-02
2585.00 1.375683e-02
2595.00 1.319709e-02
2605.00 1.227081e-02
2615.00 1.180261e-02
2625.00 1.362456e-02
2635.00 1.755261e-02
2645.00 2.140139e-02
2655.00 2.675176e-02
2665.00 1.946718e-02
2675.00 2.139373e-02
2685.00 2.354017e-02
2695.00 1.896259e-02
2705.00 2.198364e-02
2715.00 1.783332e-02
2725.00 1.572545e-02
2735.00 1.842608e-02
2745.00 1.334698e-02
2755.00 1.551238e-02
2765.00 1.830405e-02
2775.00 1.945243e-02
2785.00 1.496629e-02
2795.00 9.502136e-03
2805.00 1.080699e-02
2815.00 1.844211e-02
2825.00 2.290071e-02
2835.00 2.139428e-02
2845.00 1.729173e-02
2855.00 1.354859e-02
2865.00 2.131766e-02
2875.00 2.661310e-02
2885.00 2.545163e-02
2895.00 2.985101e-02
2910.00 3.912210e-02
2930.00 3.495136e-02
2950.00 3.264129e-02
2970.00 3.372196e-02
2990.00 3.440406e-02
3010.00 3.433049e-02
3030.00 3.694100e-02
3050.00 3.840864e-02
3070.00 4.233482e-02
3090.00 4.143238e-02
3110.00 4.828449e-02
3130.00 4.496137e-02
3150.00 4.587679e-02
3170.00 5.042016e-02
3190.00 4.435489e-02
3210.00 4.864014e-02
3230.00 4.241356e-02
3250.00 5.833556e-02
3270.00 6.803401e-02
3290.00 6.762183e-02
3310.00 6.319643e-02
3330.00 6.561102e-02
3350.00 6.364187e-02
3370.00 4.858227e-02
3390.00 5.500462e-02
3410.00 5.681724e-02
3430.00 6.043377e-02
3450.00 6.314649e-02
3470.00 6.581143e-02
3490.00 7.461048e-02
3510.00 8.044492e-02
3530.00 7.251463e-02
3550.00 8.398246e-02
3570.00 5.781889e-02
3590.00 5.945256e-02
3610.00 7.530594e-02
3630.00 8.045263e-02
3640.00 8.441126e-02
3650.00 9.567493e-02
3670.00 1.030260e-01
3690.00 9.203204e-02
3710.00 9.752982e-02
3730.00 6.595713e-02
3750.00 7.703316e-02
3770.00 1.000060e-01
3790.00 1.054197e-01
3810.00 1.009009e-01
3830.00 6.103983e-02
3850.00 8.360901e-02
3870.00 8.503226e-02
3890.00 9.719449e-02
3910.00 1.244516e-01
3930.00 6.771115e-02
3950.00 1.098689e-01
3970.00 7.449604e-02
3990.00 1.608712e-01
4010.00 1.794894e-01
4030.00 1.774183e-01
4050.00 1.711828e-01
4070.00 1.611806e-01
4090.00 1.970765e-01
4110.00 1.831211e-01
4130.00 1.833380e-01
4150.00 1.804659e-01
4170.00 1.847221e-01
4190.00 1.816375e-01
4210.00 1.845516e-01
4230.00 1.747124e-01
4250.00 1.887121e-01
4270.00 1.781855e-01
4290.00 1.684260e-01
4310.00 1.479441e-01
4330.00 2.105332e-01
4350.00 2.104318e-01
4370.00 2.342970e-01
4390.00 2.077510e-01
4410.00 2.211627e-01
4430.00 2.403889e-01
4450.00 2.441550e-01
4470.00 2.631151e-01
4490.00 2.713335e-01
4510.00 3.122688e-01
4530.00 2.713015e-01
4550.00 2.866981e-01
4570.00 3.122125e-01
4590.00 2.964975e-01
4610.00 3.052897e-01
4630.00 2.994936e-01
4650.00 3.046049e-01
4670.00 3.210413e-01
4690.00 3.170847e-01
4710.00 3.079238e-01
4730.00 3.196493e-01
4750.00 3.317396e-01
4770.00 3.271514e-01
4790.00 3.302392e-01
4810.00 3.322311e-01
4830.00 3.456456e-01
4850.00 3.269931e-01
4870.00 2.997389e-01
4890.00 3.371242e-01
4910.00 3.391175e-01
4930.00 3.325787e-01
4950.00 3.488259e-01
4970.00 3.422444e-01
4990.00 3.185997e-01
5010.00 3.005314e-01
5030.00 3.226726e-01
5050.00 3.219444e-01
5070.00 3.378881e-01
5090.00 3.189638e-01
5110.00 3.296852e-01
5130.00 3.182560e-01
5150.00 3.055343e-01
5170.00 2.795285e-01
5190.00 2.927077e-01
5210.00 3.223844e-01
5230.00 3.541532e-01
5250.00 3.737189e-01
5270.00 3.270395e-01
5290.00 3.826952e-01
5310.00 4.114561e-01
5330.00 3.575706e-01
5350.00 3.969384e-01
5370.00 3.953162e-01
5390.00 3.874390e-01
5410.00 3.826181e-01
5430.00 3.899851e-01
5450.00 4.021165e-01
5470.00 3.956766e-01
5490.00 4.005965e-01
5510.00 3.959897e-01
5530.00 4.149767e-01
5550.00 4.231851e-01
5570.00 4.147143e-01
5590.00 4.039044e-01
5610.00 4.215202e-01
5630.00 4.207115e-01
5650.00 4.303293e-01
5670.00 4.203566e-01
5690.00 4.369076e-01
5710.00 4.215913e-01
5730.00 4.630395e-01
5750.00 4.460224e-01
5770.00 4.518506e-01
5790.00 4.339852e-01
5810.00 4.555437e-01
5830.00 4.718452e-01
5850.00 4.565323e-01
5870.00 4.566753e-01
5890.00 3.946535e-01
5910.00 4.504519e-01
5930.00 4.573740e-01
5950.00 4.591874e-01
5970.00 4.696036e-01
5990.00 4.628129e-01
6010.00 4.580458e-01
6030.00 4.737242e-01
6050.00 4.849649e-01
6070.00 4.850841e-01
6090.00 4.680056e-01
6110.00 4.719147e-01
6130.00 4.444395e-01
6150.00 4.599502e-01
6170.00 4.315382e-01
6190.00 4.641697e-01
6210.00 4.605691e-01
6230.00 4.458338e-01
6250.00 4.327989e-01
6270.00 4.564178e-01
6290.00 4.678839e-01
6310.00 4.540342e-01
6330.00 4.626934e-01
6350.00 4.652343e-01
6370.00 4.641345e-01
6390.00 4.761542e-01
6410.00 4.681038e-01
6430.00 4.743064e-01
6450.00 4.720637e-01
6470.00 4.720118e-01
6490.00 4.641677e-01
6510.00 4.844986e-01
6530.00 4.859342e-01
6550.00 4.754048e-01
6570.00 4.520576e-01
6590.00 4.819438e-01
6610.00 4.882382e-01
6630.00 4.835939e-01
6650.00 4.849754e-01
6670.00 4.738028e-01
6690.00 4.812390e-01
6710.00 4.619408e-01
6730.00 4.766511e-01
6750.00 4.691288e-01
6770.00 4.731202e-01
6790.00 4.682308e-01
6810.00 4.726067e-01
6830.00 4.808851e-01
6850.00 4.685366e-01
6870.00 4.787796e-01
6890.00 4.878890e-01
6910.00 4.883960e-01
6930.00 4.861349e-01
6950.00 4.881958e-01
6970.00 4.969898e-01
6990.00 4.962918e-01
7010.00 4.911957e-01
7030.00 5.040233e-01
7050.00 5.073050e-01
7070.00 4.901367e-01
7090.00 4.732738e-01
7110.00 4.611533e-01
7130.00 4.509847e-01
7150.00 4.500726e-01
7170.00 4.584881e-01
7190.00 4.482092e-01
7210.00 4.611322e-01
7230.00 4.749279e-01
7250.00 4.805787e-01
7270.00 4.862480e-01
7290.00 4.816361e-01
7310.00 4.988795e-01
7330.00 5.021217e-01
7350.00 5.099344e-01
7370.00 5.265104e-01
7390.00 5.181375e-01
7410.00 5.197464e-01
7430.00 5.355943e-01
7450.00 5.359709e-01
7470.00 5.476979e-01
7490.00 5.485131e-01
7510.00 5.560757e-01
7530.00 5.679043e-01
7550.00 5.738333e-01
7570.00 5.729700e-01
7590.00 5.593010e-01
7610.00 5.489850e-01
7630.00 5.356205e-01
7650.00 5.230436e-01
7670.00 4.953575e-01
7690.00 5.097724e-01
7710.00 5.009227e-01
7730.00 5.037129e-01
7750.00 5.013019e-01
7770.00 5.097370e-01
7790.00 5.151522e-01
7810.00 5.162183e-01
7830.00 5.129083e-01
7850.00 5.069491e-01
7870.00 5.180806e-01
7890.00 5.125317e-01
7910.00 5.012228e-01
7930.00 5.048788e-01
7950.00 5.019036e-01
7970.00 5.215268e-01
7990.00 5.230029e-01
8010.00 5.311541e-01
8030.00 5.353179e-01
8050.00 5.372542e-01
8070.00 5.472518e-01
8090.00 5.442683e-01
8110.00 5.525060e-01
8130.00 5.724822e-01
8150.00 5.821398e-01
8170.00 5.900244e-01
8190.00 5.693876e-01
8210.00 5.641029e-01
8230.00 5.687923e-01
8250.00 5.689345e-01
8270.00 5.754633e-01
8290.00 5.696607e-01
8310.00 5.505479e-01
8330.00 5.465014e-01
8350.00 5.479498e-01
8370.00 5.521608e-01
8390.00 5.323911e-01
8410.00 5.532135e-01
8430.00 5.245642e-01
8450.00 5.115777e-01
8470.00 5.129417e-01
8490.00 5.170980e-01
8510.00 4.960850e-01
8530.00 5.179630e-01
8550.00 4.758143e-01
8570.00 5.389628e-01
8590.00 5.342515e-01
8610.00 5.422151e-01
8630.00 5.544395e-01
8650.00 5.563185e-01
8670.00 5.000613e-01
8690.00 5.454004e-01
8710.00 5.685953e-01
8730.00 5.752372e-01
8750.00 5.719030e-01
8770.00 5.838019e-01
8790.00 5.928708e-01
8810.00 5.818808e-01
8830.00 5.890475e-01
8850.00 5.895172e-01
8870.00 5.659601e-01
8890.00 5.745627e-01
8910.00 5.827050e-01
8930.00 5.730067e-01
8950.00 5.758437e-01
8970.00 5.791673e-01
8990.00 5.815268e-01
9010.00 5.654293e-01
9030.00 5.891703e-01
9050.00 6.095691e-01
9070.00 6.114814e-01
9090.00 6.011703e-01
9110.00 6.104049e-01
9130.00 6.226020e-01
9150.00 6.191274e-01
9170.00 6.200562e-01
9190.00 6.283650e-01
9210.00 6.031619e-01
9230.00 5.862739e-01
9250.00 5.846655e-01
9270.00 5.894872e-01
9290.00 5.804266e-01
9310.00 5.852457e-01
9330.00 5.875874e-01
9350.00 5.859426e-01
9370.00 5.763062e-01
9390.00 5.891240e-01
9410.00 5.794538e-01
9430.00 5.953093e-01
9450.00 5.876188e-01
9470.00 6.035213e-01
9490.00 6.058760e-01
9510.00 5.946272e-01
9530.00 5.999946e-01
9550.00 5.907182e-01
9570.00 5.976044e-01
9590.00 6.100772e-01
9610.00 6.017765e-01
9630.00 6.071684e-01
9650.00 5.952714e-01
9670.00 5.970929e-01
9690.00 6.080977e-01
9710.00 5.981837e-01
9730.00 5.923309e-01
9750.00 5.915804e-01
9770.00 5.959525e-01
9790.00 5.874928e-01
9810.00 6.047172e-01
9830.00 5.988130e-01
9850.00 6.047464e-01
9870.00 6.014003e-01
9890.00 6.016593e-01
9910.00 5.946677e-01
9930.00 6.000922e-01
9950.00 6.029327e-01
9970.00 6.042167e-01
9990.00 6.034192e-01
10030.00 6.049360e-01
10070.00 5.991272e-01
10130.00 6.081677e-01
10170.00 6.022907e-01
10220.00 6.067525e-01
10280.00 6.105252e-01
10320.00 6.050739e-01
10380.00 6.029480e-01
10430.00 6.073735e-01
10480.00 5.994794e-01
10520.00 5.933326e-01
10580.00 5.818769e-01
10630.00 5.775632e-01
10680.00 5.742897e-01
10720.00 5.798960e-01
10780.00 5.779802e-01
10820.00 5.704928e-01
10870.00 5.703781e-01
10920.00 5.713414e-01
10980.00 5.648847e-01
11020.00 5.610949e-01
11080.00 5.524813e-01
11130.00 5.521726e-01
11170.00 5.493438e-01
11220.00 5.506120e-01
11280.00 5.450441e-01
11330.00 5.458269e-01
11380.00 5.422164e-01
11430.00 5.374477e-01
11470.00 5.457573e-01
11530.00 5.452797e-01
11570.00 5.397331e-01
11620.00 5.321336e-01
11670.00 5.327986e-01
11730.00 5.358112e-01
11770.00 5.234566e-01
11830.00 5.190263e-01
11870.00 5.101296e-01
11920.00 5.190393e-01
11980.00 5.026249e-01
12030.00 5.137943e-01
12070.00 5.105680e-01
12120.00 5.121321e-01
12180.00 5.143161e-01
12230.00 5.120179e-01
12270.00 5.088998e-01
12320.00 5.059175e-01
12370.00 5.056119e-01
12430.00 4.979649e-01
12480.00 4.972069e-01
12530.00 4.933028e-01
12580.00 4.925702e-01
12620.00 4.900302e-01
12670.00 4.864776e-01
12720.00 4.874277e-01
12780.00 4.882619e-01
12830.00 4.734728e-01
12880.00 4.812641e-01
12920.00 4.761722e-01
12980.00 4.819358e-01
13020.00 4.763893e-01
13080.00 4.782918e-01
13130.00 4.674975e-01
13180.00 4.670758e-01
13230.00 4.676153e-01
13280.00 4.596369e-01
13320.00 4.593767e-01
13380.00 4.549217e-01
13430.00 4.565735e-01
13470.00 4.529247e-01
13520.00 4.496610e-01
13570.00 4.438600e-01
13630.00 4.420588e-01
13670.00 4.448127e-01
13730.00 4.468202e-01
13770.00 4.461153e-01
13820.00 4.469773e-01
13880.00 4.431412e-01
13930.00 4.228538e-01
13970.00 4.201640e-01
14020.00 4.164757e-01
14080.00 4.202703e-01
14120.00 4.153615e-01
14180.00 4.200302e-01
14230.00 4.164180e-01
14280.00 4.101491e-01
14330.00 4.177042e-01
14380.00 4.216832e-01
14420.00 4.122855e-01
14480.00 4.197343e-01
14520.00 4.169444e-01
14570.00 4.195307e-01
14620.00 4.107523e-01
14670.00 4.085572e-01
14720.00 4.057776e-01
14770.00 4.089158e-01
14830.00 4.117925e-01
14880.00 4.075818e-01
14920.00 4.188676e-01
14980.00 4.159188e-01
15030.00 4.094979e-01
15070.00 4.118177e-01
15120.00 4.203078e-01
15170.00 4.222385e-01
15220.00 4.226852e-01
15280.00 4.260238e-01
15330.00 4.257533e-01
15370.00 4.251710e-01
15430.00 4.225362e-01
15480.00 4.240678e-01
15520.00 4.207363e-01
15570.00 4.103990e-01
15620.00 4.141281e-01
15670.00 4.132883e-01
15720.00 4.225837e-01
15780.00 3.978653e-01
15830.00 3.998100e-01
15870.00 3.998161e-01
15930.00 4.125840e-01
15980.00 4.049916e-01
16050.00 4.071396e-01
16150.00 4.143446e-01
16250.00 4.034070e-01
16350.00 4.163229e-01
16450.00 4.004470e-01
16550.00 4.107200e-01
16650.00 4.014867e-01
16750.00 4.007167e-01
16850.00 3.952250e-01
16950.00 3.969043e-01
17050.00 3.896679e-01
17150.00 3.839438e-01
17250.00 3.769642e-01
17350.00 3.664787e-01
17450.00 3.619982e-01
17550.00 3.551022e-01
17650.00 3.480303e-01
17750.00 3.386604e-01
17850.00 3.330872e-01
17950.00 3.248015e-01
18050.00 3.164059e-01
18150.00 3.112151e-01
18250.00 3.073110e-01
18350.00 3.035220e-01
18450.00 2.960330e-01
18550.00 2.931703e-01
18650.00 2.859685e-01
18750.00 2.795024e-01
18850.00 2.795110e-01
18950.00 2.701256e-01
19050.00 2.737554e-01
19150.00 2.693769e-01
19250.00 2.664571e-01
19350.00 2.597837e-01
19450.00 2.540709e-01
19550.00 2.530056e-01
19650.00 2.491656e-01
19750.00 2.426117e-01
19850.00 2.405123e-01
19950.00 2.381884e-01
20050.00 2.374212e-01
20150.00 2.345049e-01
20250.00 2.297141e-01
20350.00 2.279861e-01
20450.00 2.276137e-01
20550.00 2.244313e-01
20650.00 2.221724e-01
20750.00 2.206975e-01
20850.00 2.181295e-01
20950.00 2.147557e-01
21050.00 2.151339e-01
21150.00 2.117403e-01
21250.00 2.097130e-01
21350.00 2.094224e-01
21450.00 2.070157e-01
21550.00 2.043819e-01
21650.00 2.012987e-01
21750.00 1.988624e-01
21850.00 1.972950e-01
21950.00 1.952815e-01
22050.00 1.906923e-01
22150.00 1.913046e-01
22250.00 1.871332e-01
22350.00 1.851599e-01
22450.00 1.831792e-01
22550.00 1.813394e-01
22650.00 1.777156e-01
22750.00 1.774890e-01
22850.00 1.735517e-01
22950.00 1.481524e-01
23050.00 1.570979e-01
23150.00 1.563907e-01
23250.00 1.352701e-01
23350.00 1.443008e-01
23450.00 1.392408e-01
23550.00 1.251226e-01
23650.00 1.342433e-01
23750.00 1.293004e-01
23850.00 1.179694e-01
23950.00 1.246316e-01
24050.00 1.221364e-01
24150.00 1.122617e-01
24250.00 1.165254e-01
24350.00 1.136335e-01
24450.00 1.077151e-01
24550.00 1.057120e-01
24650.00 1.067293e-01
24750.00 1.022209e-01
24850.00 9.330535e-02
24950.00 9.256557e-02
25050.00 9.387383e-02
25150.00 8.803758e-02
25250.00 9.025559e-02
25350.00 9.003971e-02
25450.00 8.806874e-02
25550.00 8.800136e-02
25650.00 8.823859e-02
25750.00 8.908738e-02
25850.00 8.588018e-02
25950.00 8.649719e-02
26050.00 8.734438e-02
26150.00 8.573641e-02
26250.00 8.458590e-02
26350.00 8.481668e-02
26450.00 8.381580e-02
26550.00 8.319738e-02
26650.00 8.126667e-02
26750.00 8.288178e-02
26850.00 8.202764e-02
26950.00 7.954770e-02
27050.00 8.008073e-02
27150.00 7.921999e-02
27250.00 7.920993e-02
27350.00 7.746950e-02
27450.00 7.744110e-02
27550.00 7.720252e-02
27650.00 7.606888e-02
27750.00 7.456683e-02
27850.00 7.491576e-02
27950.00 7.464114e-02
28050.00 7.345270e-02
28150.00 7.241027e-02
28250.00 7.232690e-02
28350.00 7.168764e-02
28450.00 7.095324e-02
28550.00 7.029542e-02
28650.00 6.997328e-02
28750.00 6.925789e-02
28850.00 6.821145e-02
28950.00 6.768930e-02
29050.00 6.732316e-02
29150.00 6.675164e-02
29250.00 6.527346e-02
29350.00 6.549463e-02
29450.00 6.447768e-02
29550.00 6.412983e-02
29650.00 6.376529e-02
29750.00 6.294156e-02
29850.00 6.235344e-02
29950.00 6.184341e-02
30050.00 6.111060e-02
30150.00 6.108956e-02
30250.00 6.015627e-02
30350.00 5.964216e-02
30450.00 5.979384e-02
30550.00 5.885686e-02
30650.00 5.857845e-02
30750.00 5.817990e-02
30850.00 5.746207e-02
30950.00 5.749993e-02
31050.00 5.726654e-02
31150.00 5.623479e-02
31250.00 5.628704e-02
31350.00 5.572411e-02
31450.00 5.540799e-02
31550.00 5.509914e-02
31650.00 5.439761e-02
31750.00 5.414346e-02
31850.00 5.380048e-02
31950.00 5.355312e-02
32100.00 5.292024e-02
32300.00 5.217286e-02
32500.00 5.145499e-02
32700.00 5.054144e-02
32900.00 5.227960e-02
33100.00 5.150859e-02
33300.00 4.826786e-02
33500.00 4.756983e-02
33700.00 4.670748e-02
33900.00 4.599665e-02
34100.00 4.514562e-02
34300.00 4.453590e-02
34500.00 4.386736e-02
34700.00 4.306646e-02
34900.00 4.233669e-02
35100.00 4.165386e-02
35300.00 4.082206e-02
35500.00 4.020077e-02
35700.00 3.945483e-02
35900.00 3.873148e-02
36100.00 3.830984e-02
36300.00 3.755035e-02
36500.00 3.687106e-02
36700.00 3.621472e-02
36900.00 3.547461e-02
37100.00 3.483975e-02
37300.00 3.433527e-02
37500.00 3.359028e-02
37700.00 3.305821e-02
37900.00 3.240928e-02
38100.00 3.202365e-02
38300.00 3.153767e-02
38500.00 3.100918e-02
38700.00 3.031349e-02
38900.00 2.985714e-02
39100.00 2.932504e-02
39300.00 2.887491e-02
39500.00 2.817406e-02
39700.00 2.775507e-02
39900.00 2.711850e-02
40100.00 2.683112e-02
40300.00 2.643440e-02
40500.00 2.585308e-02
40700.00 2.546295e-02
40900.00 2.502186e-02
41100.00 2.467201e-02
41300.00 2.424599e-02
41500.00 2.381926e-02
41700.00 2.338331e-02
41900.00 2.308925e-02
42100.00 2.261808e-02
42300.00 2.237335e-02
42500.00 2.195967e-02
42700.00 2.166323e-02
42900.00 2.055679e-02
43100.00 1.947407e-02
43300.00 1.948720e-02
43500.00 1.852891e-02
43700.00 1.806833e-02
43900.00 1.773386e-02
44100.00 1.699255e-02
44300.00 1.670769e-02
44500.00 1.643064e-02
44700.00 1.596667e-02
44900.00 1.587552e-02
45100.00 1.552081e-02
45300.00 1.518251e-02
45500.00 1.513273e-02
45700.00 1.499782e-02
45900.00 1.448813e-02
46100.00 1.453988e-02
46300.00 1.432753e-02
46500.00 1.409764e-02
46700.00 1.412345e-02
46900.00 1.386756e-02
47100.00 1.361965e-02
47300.00 1.363645e-02
47500.00 1.331114e-02
47700.00 1.322500e-02
47900.00 1.311295e-02
48100.00 1.282086e-02
48300.00 1.288839e-02
48500.00 1.262143e-02
48700.00 1.242285e-02
48900.00 1.225832e-02
49100.00 1.211929e-02
49300.00 1.198869e-02
49500.00 1.178040e-02
49700.00 1.176119e-02
49900.00 1.151817e-02
50100.00 1.130173e-02
50300.00 1.111245e-02
50500.00 1.094692e-02
50700.00 1.080162e-02
50900.00 1.067348e-02
51100.00 1.055980e-02
51300.00 1.045793e-02
51500.00 1.036552e-02
51700.00 1.028029e-02
51900.00 1.020011e-02
52100.00 1.012304e-02
52300.00 1.004712e-02
52500.00 9.970530e-03
52700.00 9.891644e-03
52900.00 9.808792e-03
53100.00 9.720504e-03
53300.00 9.625328e-03
53500.00 9.521938e-03
53700.00 9.409249e-03
53900.00 9.286105e-03
54100.00 9.151679e-03
54300.00 9.007788e-03
54500.00 8.976813e-03
54700.00 8.841392e-03
54900.00 8.766732e-03
55100.00 8.663247e-03
55300.00 8.685129e-03
55500.00 8.480348e-03
55700.00 8.467250e-03
55900.00 8.346777e-03
56100.00 8.297780e-03
56300.00 8.163138e-03
56500.00 8.132307e-03
56700.00 8.049864e-03
56900.00 7.924513e-03
57100.00 7.903972e-03
57300.00 7.819520e-03
57500.00 7.739380e-03
57700.00 7.657401e-03
57900.00 7.612993e-03
58100.00 7.514215e-03
58300.00 7.448641e-03
58500.00 7.380383e-03
58700.00 7.283966e-03
58900.00 7.224335e-03
59100.00 7.161110e-03
59300.00 7.103094e-03
59500.00 7.020433e-03
59700.00 6.974602e-03
59900.00 6.908483e-03
60100.00 6.844085e-03
60300.00 6.780486e-03
60500.00 6.700129e-03
60700.00 6.642560e-03
60900.00 6.579672e-03
61100.00 6.512310e-03
61300.00 6.465164e-03
61500.00 6.412679e-03
61700.00 6.364555e-03
61900.00 7.130814e-03
62100.00 7.703826e-03
62300.00 7.815349e-03
62500.00 7.518910e-03
62700.00 6.998477e-03
62900.00 6.352206e-03
63100.00 5.970724e-03
63300.00 5.934589e-03
63500.00 5.877206e-03
63700.00 5.840120e-03
63900.00 5.778223e-03
64200.00 5.711835e-03
64600.00 5.615227e-03
65000.00 5.524657e-03
65400.00 5.437471e-03
65800.00 5.358139e-03
66200.00 5.272465e-03
66600.00 5.187533e-03
67000.00 5.100686e-03
67400.00 5.013717e-03
67800.00 4.931056e-03
68200.00 4.847378e-03
68600.00 4.771606e-03
69000.00 4.692157e-03
69400.00 4.617937e-03
69800.00 4.545400e-03
70200.00 4.470969e-03
70600.00 4.403589e-03
71000.00 4.335206e-03
71400.00 4.270316e-03
71800.00 4.205337e-03
72200.00 4.828596e-03
72600.00 4.509366e-03
73000.00 4.692678e-03
73400.00 4.566564e-03
73800.00 4.237559e-03
74200.00 4.780989e-03
74600.00 5.331191e-03
75000.00 6.002842e-03
75400.00 6.501333e-03
75800.00 5.794422e-03
76200.00 6.304683e-03
76600.00 6.446921e-03
77000.00 6.351987e-03
77400.00 6.049034e-03
77800.00 5.962067e-03
78200.00 5.898489e-03
78600.00 5.862225e-03
79000.00 5.698197e-03
79400.00 5.403051e-03
79800.00 4.924553e-03
80200.00 4.487667e-03
80600.00 4.091858e-03
81000.00 3.702916e-03
81400.00 3.491998e-03
81800.00 3.357100e-03
82200.00 3.279969e-03
82600.00 3.224552e-03
83000.00 3.188186e-03
83400.00 3.187393e-03
83800.00 3.236641e-03
84200.00 3.353211e-03
84600.00 3.387341e-03
85000.00 3.433847e-03
85400.00 3.508284e-03
85800.00 3.602900e-03
86200.00 3.656286e-03
86600.00 3.581090e-03
87000.00 3.354314e-03
87400.00 3.109737e-03
87800.00 2.888376e-03
88200.00 2.631138e-03
88600.00 2.397731e-03
89000.00 2.191989e-03
89400.00 2.026521e-03
89800.00 1.907847e-03
90200.00 1.928128e-03
90600.00 1.910729e-03
91000.00 1.843545e-03
91400.00 1.683226e-03
91800.00 1.662763e-03
92200.00 1.644111e-03
92600.00 1.624518e-03
93000.00 1.607666e-03
93400.00 1.589872e-03
93800.00 1.574812e-03
94200.00 1.566572e-03
94600.00 1.552301e-03
95000.00 1.533207e-03
95400.00 1.520825e-03
95800.00 1.509360e-03
96200.00 1.564483e-03
96600.00 1.555505e-03
97000.00 1.605170e-03
97000.00 1.605170e-03
97400.00 1.655409e-03
97800.00 1.673392e-03
98200.00 1.582017e-03
98231.60 1.575186e-03
98600.00 1.540224e-03
99000.00 1.580471e-03
99400.00 1.602792e-03
99478.80 1.606157e-03
99800.00 1.617951e-03
100000.00 1.620028e-03
100742.00 1.624503e-03
102021.00 1.671798e-03
103316.00 1.657557e-03
104628.00 1.640501e-03
105957.00 1.805007e-03
107302.00 1.950966e-03
108665.00 1.881143e-03
110000.00 2.154023e-03
110044.00 2.172021e-03
111442.00 2.680527e-03
112857.00 5.041879e-03
114289.00 3.627441e-03
115741.00 2.503076e-03
117210.00 1.909683e-03
118699.00 1.747851e-03
120000.00 1.888435e-03
120206.00 1.895074e-03
121732.00 1.635030e-03
123278.00 1.737979e-03
124843.00 1.854601e-03
126428.00 2.034463e-03
128033.00 2.556630e-03
129659.00 1.388767e-03
130000.00 1.196100e-03
131305.00 9.933472e-04
132972.00 1.001962e-03
134661.00 8.947792e-04
136371.00 8.835020e-04
138102.00 7.178499e-04
139856.00 7.773532e-04
140000.00 7.673193e-04
141631.00 7.696805e-04
143430.00 7.508802e-04
145251.00 5.793597e-04
147095.00 8.234169e-04
148963.00 7.750435e-04
150000.00 7.705981e-04
150854.00 7.576303e-04
152770.00 7.752228e-04
154710.00 9.529929e-04
156674.00 8.103779e-04
158663.00 8.179603e-04
160000.00 8.202808e-04
160678.00 8.290413e-04
162718.00 1.006300e-03
164784.00 1.212900e-03
166876.00 1.089639e-03
168995.00 1.239320e-03
170000.00 1.365079e-03
171141.00 1.217758e-03
173314.00 1.109821e-03
175515.00 8.489872e-04
177743.00 7.773477e-04
180000.00 6.795726e-04
180000.00 6.795726e-04
190000.00 6.006988e-04
200000.00 5.313975e-04
210000.00 5.284825e-04
220000.00 5.310278e-04
230000.00 5.237593e-04
240000.00 5.221749e-04
250000.00 5.102666e-04
260000.00 5.128354e-04
270000.00 5.396746e-04
280000.00 5.708999e-04
300000.00 6.314909e-04
320000.00 7.236456e-04
340000.00 8.206061e-04
360000.00 9.331546e-04
380000.00 1.049663e-03
400000.00 1.143680e-03
420000.00 1.215643e-03
440000.00 1.287971e-03
460000.00 1.366919e-03
480000.00 1.446059e-03
500000.00 1.527008e-03
520000.00 1.609100e-03
540000.00 1.691393e-03
560000.00 1.775215e-03
580000.00 1.831466e-03
600000.00 1.824305e-03
620000.00 1.817314e-03
640000.00 1.809651e-03
660000.00 1.790699e-03
680000.00 1.747140e-03
700000.00 1.703833e-03
800000.00 1.508451e-03
900000.00 1.257288e-03
1000000.00 9.876571e-04
1100000.00 7.847673e-04
1200000.00 6.345517e-04
1300000.00 5.056686e-04
1400000.00 3.948041e-04
1500000.00 3.190794e-04
1599000.00 2.513774e-04
3000000.00 2.081821e-05
8000000.00 1.614915e-07
12000000.00 1.784930e-08
12720000.00 1.200463e-08
14470000.00 5.836725e-09
16460000.00 2.823427e-09
18730000.00 1.359739e-09
21310000.00 6.525835e-10
24250000.00 3.121193e-10
27590000.00 1.488530e-10
31390000.00 7.085677e-11
35720000.00 3.365138e-11
40640000.00 1.595967e-11
46240000.00 7.559059e-12
52610000.00 3.576149e-12
# Attenuated SED (Av=1.5)
1005.00 5.508713e-04
1015.00 5.700567e-04
1025.00 3.648327e-04
1035.00 4.930299e-04
1045.00 8.414910e-04
1055.00 9.120741e-04
1065.00 8.046714e-04
1075.00 9.652243e-04
1085.00 8.222699e-04
1095.00 1.085081e-03
1105.00 1.167361e-03
1115.00 1.185658e-03
1125.00 1.188161e-03
1135.00 1.470527e-03
1145.00 1.397010e-03
1155.00 1.560092e-03
1165.00 1.689160e-03
1175.00 1.392576e-03
1185.00 1.693966e-03
1195.00 1.041316e-03
1205.00 9.129803e-04
1215.00 6.694299e-04
1225.00 1.165799e-03
1235.00 1.999327e-03
1245.00 2.379248e-03
1255.00 2.306592e-03
1265.00 1.832360e-03
1275.00 2.778406e-03
1285.00 3.070561e-03
1295.00 2.475127e-03
1305.00 2.318751e-03
1315.00 3.095587e-03
1325.00 3.094426e-03
1335.00 2.638042e-03
1345.00 3.442543e-03
1355.00 3.367668e-03
1365.00 2.999956e-03
1375.00 3.335633e-03
1385.00 3.440606e-03
1395.00 3.300218e-03
1405.00 3.374615e-03
1415.00 3.302125e-03
1425.00 3.515550e-03
1435.00 3.419295e-03
1442.00 3.707046e-03
1447.00 3.876866e-03
1455.00 3.764837e-03
1465.00 3.493922e-03
1475.00 3.458240e-03
1485.00 3.643046e-03
1495.00 3.810302e-03
1505.00 3.689582e-03
1512.00 3.284876e-03
1517.00 3.604542e-03
1525.00 3.348453e-03
1535.00 2.946450e-03
1545.00 3.499311e-03
1555.00 3.257959e-03
1565.00 3.221259e-03
1575.00 3.435745e-03
1585.00 3.709171e-03
1595.00 3.855634e-03
1605.00 3.726170e-03
1615.00 3.781918e-03
1625.00 3.528835e-03
1635.00 3.772441e-03
1645.00 3.880691e-03
1655.00 3.490041e-03
1665.00 3.918350e-03
1672.00 3.282594e-03
1677.00 3.921436e-03
1685.00 4.257161e-03
1695.00 3.994446e-03
1705.00 3.799890e-03
1715.00 3.612598e-03
1725.00 3.608997e-03
1735.00 3.898855e-03
1745.00 3.847032e-03
1755.00 4.230909e-03
1765.00 3.731878e-03
1775.00 3.990095e-03
1785.00 4.053200e-03
1795.00 4.441182e-03
1805.00 4.380600e-03
1815.00 4.129914e-03
1825.00 4.160661e-03
1835.00 3.999592e-03
1845.00 3.672137e-03
1855.00 3.714926e-03
1865.00 3.875376e-03
1875.00 4.236711e-03
1885.00 3.974725e-03
1895.00 3.909694e-03
1905.00 4.039649e-03
1915.00 3.994651e-03
1925.00 3.977489e-03
1935.00 3.992529e-03
1945.00 4.255018e-03
1955.00 4.074101e-03
1967.00 4.502126e-03
1976.00 4.599746e-03
1984.00 4.393071e-03
1995.00 4.266668e-03
2005.00 4.355403e-03
2015.00 4.182937e-03
2025.00 4.378015e-03
2035.00 4.273602e-03
2045.00 4.519704e-03
2055.00 4.304842e-03
2065.00 4.318144e-03
2074.00 4.684437e-03
2078.00 4.756495e-03
2085.00 4.964095e-03
2095.00 4.702466e-03
2105.00 4.650394e-03
2115.00 4.787419e-03
2125.00 4.811038e-03
2135.00 4.370861e-03
2145.00 4.775841e-03
2155.00 4.929368e-03
2165.00 4.658836e-03
2175.00 4.635994e-03
2185.00 4.781762e-03
2195.00 5.037030e-03
2205.00 4.866038e-03
2215.00 4.450676e-03
2225.00 4.446874e-03
2235.00 5.098073e-03
2245.00 4.785801e-03
2255.00 4.395466e-03
2265.00 4.453003e-03
2275.00 4.697951e-03
2285.00 5.149621e-03
2295.00 4.772261e-03
2305.00 4.921644e-03
2315.00 4.588888e-03
2325.00 3.548980e-03
2335.00 4.088319e-03
2345.00 3.720130e-03
2355.00 4.566489e-03
2365.00 3.792662e-03
2375.00 4.147297e-03
2385.00 3.531275e-03
2395.00 3.982572e-03
2405.00 3.841587e-03
2415.00 4.059039e-03
2425.00 4.873356e-03
2435.00 4.746892e-03
2445.00 5.294966e-03
2455.00 5.322414e-03
2465.00 5.104322e-03
2475.00 4.776569e-03
2485.00 4.456207e-03
2495.00 4.522195e-03
2505.00 5.482576e-03
2513.00 4.213972e-03
2518.00 4.146945e-03
2525.00 4.005800e-03
2535.00 4.525169e-03
2545.00 4.542621e-03
2555.00 5.887598e-03
2565.00 5.224899e-03
2575.00 6.039576e-03
2585.00 5.761854e-03
2595.00 5.539185e-03
2605.00 5.161332e-03
2615.00 4.974901e-03
2625.00 5.754981e-03
2635.00 7.429765e-03
2645.00 9.077878e-03
2655.00 1.137106e-02
2665.00 8.291911e-03
2675.00 9.131423e-03
2685.00 1.006836e-02
2695.00 8.127208e-03
2705.00 9.441369e-03
2715.00 7.674609e-03
2725.00 6.781302e-03
2735.00 7.962073e-03
2745.00 5.779048e-03
2755.00 6.730222e-03
2765.00 7.957428e-03
2775.00 8.473665e-03
2785.00 6.532520e-03
2795.00 4.155795e-03
2805.00 4.735886e-03
2815.00 8.097820e-03
2825.00 1.007545e-02
2835.00 9.431238e-03
2845.00 7.637692e-03
2855.00 5.996085e-03
2865.00 9.452801e-03
2875.00 1.182391e-02
2885.00 1.132983e-02
2895.00 1.331392e-02
2910.00 1.749940e-02
2930.00 1.569380e-02
2950.00 1.471240e-02
2970.00 1.525707e-02
2990.00 1.562426e-02
3010.00 1.564917e-02
3030.00 1.690173e-02
3050.00 1.763813e-02
3070.00 1.951248e-02
3090.00 1.916619e-02
3110.00 2.241687e-02
3130.00 2.094924e-02
3150.00 2.145228e-02
3170.00 2.366064e-02
3190.00 2.088797e-02
3210.00 2.298647e-02
3230.00 2.011386e-02
3250.00 2.776054e-02
3270.00 3.248741e-02
3290.00 3.240121e-02
3310.00 3.038385e-02
3330.00 3.165146e-02
3350.00 3.080474e-02
3370.00 2.359397e-02
3390.00 2.680168e-02
3410.00 2.777625e-02
3430.00 2.964114e-02
3450.00 3.107260e-02
3470.00 3.248882e-02
3490.00 3.695116e-02
3510.00 3.996813e-02
3530.00 3.614258e-02
3550.00 4.199060e-02
3570.00 2.899978e-02
3590.00 2.991221e-02
3610.00 3.800598e-02
3630.00 4.072860e-02
3640.00 4.279813e-02
3650.00 4.858315e-02
3670.00 5.247527e-02
3690.00 4.701742e-02
3710.00 4.997597e-02
3730.00 3.389859e-02
3750.00 3.970871e-02
3770.00 5.170281e-02
3790.00 5.466163e-02
3810.00 5.247115e-02
3830.00 3.183435e-02
3850.00 4.373057e-02
3870.00 4.460234e-02
3890.00 5.112696e-02
3910.00 6.565013e-02
3930.00 3.581912e-02
3950.00 5.828294e-02
3970.00 3.962824e-02
3990.00 8.581189e-02
4010.00 9.600604e-02
4030.00 9.515715e-02
4050.00 9.206174e-02
4070.00 8.691624e-02
4090.00 1.065578e-01
4110.00 9.927593e-02
4130.00 9.965671e-02
4150.00 9.835371e-02
4170.00 1.009367e-01
4190.00 9.950933e-02
4210.00 1.013672e-01
4230.00 9.620952e-02
4250.00 1.041843e-01
4270.00 9.862264e-02
4290.00 9.345629e-02
4310.00 8.229735e-02
4330.00 1.174062e-01
4350.00 1.176408e-01
4370.00 1.313055e-01
4390.00 1.167140e-01
4410.00 1.245515e-01
4430.00 1.357071e-01
4450.00 1.381653e-01
4470.00 1.492513e-01
4490.00 1.542797e-01
4510.00 1.779759e-01
4530.00 1.549908e-01
4550.00 1.641700e-01
4570.00 1.791962e-01
4590.00 1.705702e-01
4610.00 1.760323e-01
4630.00 1.730852e-01
4650.00 1.764395e-01
4670.00 1.863807e-01
4690.00 1.844976e-01
4710.00 1.795679e-01
4730.00 1.868201e-01
4750.00 1.943149e-01
4770.00 1.920486e-01
4790.00 1.942850e-01
4810.00 1.958817e-01
4830.00 2.042312e-01
4850.00 1.936253e-01
4870.00 1.778664e-01
4890.00 2.004761e-01
4910.00 2.020877e-01
4930.00 1.986076e-01
4950.00 2.087454e-01
4970.00 2.052325e-01
4990.00 1.914486e-01
5010.00 1.809624e-01
5030.00 1.946917e-01
5050.00 1.946474e-01
5070.00 2.047000e-01
5090.00 1.936238e-01
5110.00 2.005324e-01
5130.00 1.939656e-01
5150.00 1.865805e-01
5170.00 1.710355e-01
5190.00 1.794499e-01
5210.00 1.980284e-01
5230.00 2.179640e-01
5250.00 2.304486e-01
5270.00 2.020506e-01
5290.00 2.368860e-01
5310.00 2.551714e-01
5330.00 2.221713e-01
5350.00 2.470942e-01
5370.00 2.465433e-01
5390.00 2.420787e-01
5410.00 2.395076e-01
5430.00 2.445671e-01
5450.00 2.526353e-01
5470.00 2.490407e-01
5490.00 2.525928e-01
5510.00 2.501367e-01
5530.00 2.625989e-01
5550.00 2.682694e-01
5570.00 2.633645e-01
5590.00 2.569510e-01
5610.00 2.686271e-01
5630.00 2.685787e-01
5650.00 2.751946e-01
5670.00 2.692804e-01
5690.00 2.803629e-01
5710.00 2.709960e-01
5730.00 2.981438e-01
5750.00 2.876717e-01
5770.00 2.919203e-01
5790.00 2.808469e-01
5810.00 2.952884e-01
5830.00 3.063612e-01
5850.00 2.969068e-01
5870.00 2.974862e-01
5890.00 2.575030e-01
5910.00 2.943869e-01
5930.00 2.993930e-01
5950.00 3.010625e-01
5970.00 3.083836e-01
5990.00 3.044072e-01
6010.00 3.017481e-01
6030.00 3.125677e-01
6050.00 3.204854e-01
6070.00 3.210635e-01
6090.00 3.102400e-01
6110.00 3.133138e-01
6130.00 2.955254e-01
6150.00 3.063063e-01
6170.00 2.878220e-01
6190.00 3.100544e-01
6210.00 3.081124e-01
6230.00 2.987015e-01
6250.00 2.904006e-01
6270.00 3.067027e-01
6290.00 3.148718e-01
6310.00 3.051468e-01
6330.00 3.114564e-01
6350.00 3.136572e-01
6370.00 3.134025e-01
6390.00 3.220159e-01
6410.00 3.170579e-01
6430.00 3.217497e-01
6450.00 3.207143e-01
6470.00 3.211626e-01
6490.00 3.162988e-01
6510.00 3.306447e-01
6530.00 3.321154e-01
6550.00 3.253971e-01
6570.00 3.098693e-01
6590.00 3.308354e-01
6610.00 3.356405e-01
6630.00 3.329251e-01
6650.00 3.343528e-01
6670.00 3.271137e-01
6690.00 3.327162e-01
6710.00 3.198216e-01
6730.00 3.304661e-01
6750.00 3.257014e-01
6770.00 3.289249e-01
6790.00 3.259713e-01
6810.00 3.294655e-01
6830.00 3.356901e-01
6850.00 3.275100e-01
6870.00 3.351175e-01
6890.00 3.419475e-01
6910.00 3.427553e-01
6930.00 3.416168e-01
6950.00 3.435133e-01
6970.00 3.501554e-01
6990.00 3.501152e-01
7010.00 3.469652e-01
7030.00 3.564808e-01
7050.00 3.592575e-01
7070.00 3.475376e-01
7090.00 3.360020e-01
7110.00 3.278058e-01
7130.00 3.209754e-01
7150.00 3.207217e-01
7170.00 3.271196e-01
7190.00 3.201762e-01
7210.00 3.298076e-01
7230.00 3.400845e-01
7250.00 3.445440e-01
7270.00 3.490247e-01
7290.00 3.461248e-01
7310.00 3.589400e-01
7330.00 3.616970e-01
7350.00 3.677538e-01
7370.00 3.801492e-01
7390.00 3.745360e-01
7410.00 3.761307e-01
7430.00 3.880426e-01
7450.00 3.887568e-01
7470.00 3.977120e-01
7490.00 3.987518e-01
7510.00 4.047019e-01
7530.00 4.137704e-01
7550.00 4.185529e-01
7570.00 4.183834e-01
7590.00 4.088495e-01
7610.00 4.017457e-01
7630.00 3.923903e-01
7650.00 3.835897e-01
7670.00 3.636749e-01
7690.00 3.746570e-01
7710.00 3.685436e-01
7730.00 3.709878e-01
7750.00 3.695999e-01
7770.00 3.762116e-01
7790.00 3.806035e-01
7810.00 3.817856e-01
7830.00 3.797279e-01
7850.00 3.757003e-01
7870.00 3.843409e-01
7890.00 3.806097e-01
7910.00 3.725868e-01
7930.00 3.756810e-01
7950.00 3.738399e-01
7970.00 3.888418e-01
7990.00 3.903277e-01
8010.00 3.968008e-01
8030.00 4.003026e-01
8050.00 4.021416e-01
8070.00 4.100217e-01
8090.00 4.081793e-01
8110.00 4.147546e-01
8130.00 4.301604e-01
8150.00 4.378325e-01
8170.00 4.441818e-01
8190.00 4.290491e-01
8210.00 4.254647e-01
8230.00 4.294011e-01
8250.00 4.299065e-01
8270.00 4.352408e-01
8290.00 4.312476e-01
8310.00 4.171593e-01
8330.00 4.144696e-01
8350.00 4.159440e-01
8370.00 4.195178e-01
8390.00 4.048597e-01
8410.00 4.210694e-01
8430.00 3.996177e-01
8450.00 3.900687e-01
8470.00 3.914525e-01
8490.00 3.949697e-01
8510.00 3.792495e-01
8530.00 3.963181e-01
8550.00 3.643822e-01
8570.00 4.130962e-01
8590.00 4.098352e-01
8610.00 4.162980e-01
8630.00 4.260440e-01
8650.00 4.278481e-01
8670.00 3.849050e-01
8690.00 4.201538e-01
8710.00 4.383863e-01
8730.00 4.438742e-01
8750.00 4.416648e-01
8770.00 4.512237e-01
8790.00 4.586070e-01
8810.00 4.504716e-01
8830.00 4.563886e-01
8850.00 4.571202e-01
8870.00 4.392054e-01
8890.00 4.462371e-01
8910.00 4.529203e-01
8930.00 4.457342e-01
8950.00 4.482937e-01
8970.00 4.512345e-01
8990.00 4.534263e-01
9010.00 4.412172e-01
9030.00 4.600983e-01
9050.00 4.763948e-01
9070.00 4.782556e-01
9090.00 4.705498e-01
9110.00 4.781409e-01
9130.00 4.880639e-01
9150.00 4.857057e-01
9170.00 4.867990e-01
9190.00 4.936905e-01
9210.00 4.742413e-01
9230.00 4.613041e-01
9250.00 4.603775e-01
9270.00 4.645148e-01
9290.00 4.577092e-01
9310.00 4.618451e-01
9330.00 4.640289e-01
9350.00 4.630637e-01
9370.00 4.557752e-01
9390.00 4.662453e-01
9410.00 4.589186e-01
9430.00 4.718102e-01
9450.00 4.660439e-01
9470.00 4.789928e-01
9490.00 4.811983e-01
9510.00 4.725934e-01
9530.00 4.771903e-01
9550.00 4.701373e-01
9570.00 4.759453e-01
9590.00 4.862119e-01
9610.00 4.799239e-01
9630.00 4.845532e-01
9650.00 4.753803e-01
9670.00 4.771564e-01
9690.00 4.862769e-01
9710.00 4.786689e-01
9730.00 4.743011e-01
9750.00 4.740142e-01
9770.00 4.778328e-01
9790.00 4.713597e-01
9810.00 4.854971e-01
9830.00 4.810704e-01
9850.00 4.861529e-01
9870.00 4.837758e-01
9890.00 4.842961e-01
9910.00 4.789755e-01
9930.00 4.836537e-01
9950.00 4.862524e-01
9970.00 4.875969e-01
9990.00 4.872609e-01
10030.00 4.890993e-01
10070.00 4.850064e-01
10130.00 4.932363e-01
10170.00 4.890667e-01
10220.00 4.934355e-01
10280.00 4.973960e-01
10320.00 4.935396e-01
10380.00 4.926726e-01
10430.00 4.970099e-01
10480.00 4.912563e-01
10520.00 4.867742e-01
10580.00 4.781857e-01
10630.00 4.753048e-01
10680.00 4.732658e-01
10720.00 4.784111e-01
10780.00 4.776097e-01
10820.00 4.719312e-01
10870.00 4.724675e-01
10920.00 4.738927e-01
10980.00 4.692751e-01
11020.00 4.666114e-01
11080.00 4.601588e-01
11130.00 4.604884e-01
11170.00 4.585930e-01
11220.00 4.602287e-01
11280.00 4.562544e-01
11330.00 4.574722e-01
11380.00 4.550006e-01
11430.00 4.515443e-01
11470.00 4.589659e-01
11530.00 4.592189e-01
11570.00 4.549765e-01
11620.00 4.490953e-01
11670.00 4.501781e-01
11730.00 4.533480e-01
11770.00 4.432985e-01
11830.00 4.401425e-01
11870.00 4.329857e-01
11920.00 4.410378e-01
11980.00 4.276548e-01
12030.00 4.376354e-01
12070.00 4.352642e-01
12120.00 4.370670e-01
12180.00 4.394923e-01
12230.00 4.379904e-01
12270.00 4.356882e-01
12320.00 4.335857e-01
12370.00 4.337710e-01
12430.00 4.277351e-01
12480.00 4.275170e-01
12530.00 4.245868e-01
12580.00 4.243793e-01
12620.00 4.225256e-01
12670.00 4.198750e-01
12720.00 4.211057e-01
12780.00 4.223162e-01
12830.00 4.099174e-01
12880.00 4.170594e-01
12920.00 4.129589e-01
12980.00 4.184278e-01
13020.00 4.139201e-01
13080.00 4.160339e-01
13130.00 4.070170e-01
13180.00 4.070195e-01
13230.00 4.078572e-01
13280.00 4.012573e-01
13320.00 4.013154e-01
13380.00 3.978444e-01
13430.00 3.996385e-01
13470.00 3.967204e-01
13520.00 3.942019e-01
13570.00 3.894500e-01
13630.00 3.882654e-01
13670.00 3.909481e-01
13730.00 3.931073e-01
13770.00 3.927484e-01
13820.00 3.938325e-01
13880.00 3.908367e-01
13930.00 3.732473e-01
13970.00 3.711128e-01
14020.00 3.681505e-01
14080.00 3.718600e-01
14120.00 3.677492e-01
14180.00 3.722333e-01
14230.00 3.693199e-01
14280.00 3.640416e-01
14330.00 3.710323e-01
14380.00 3.748526e-01
14420.00 3.667209e-01
14480.00 3.736841e-01
14520.00 3.714223e-01
14570.00 3.740041e-01
14620.00 3.664487e-01
14670.00 3.647577e-01
14720.00 3.625399e-01
14770.00 3.656080e-01
14830.00 3.684973e-01
14880.00 3.649893e-01
14920.00 3.753083e-01
14980.00 3.729808e-01
15030.00 3.674793e-01
15070.00 3.697663e-01
15120.00 3.776500e-01
15170.00 3.796449e-01
15220.00 3.803054e-01
15280.00 3.836204e-01
15330.00 3.836342e-01
15370.00 3.833140e-01
15430.00 3.812418e-01
15480.00 3.828757e-01
15520.00 3.800667e-01
15570.00 3.709699e-01
15620.00 3.745828e-01
15670.00 3.740634e-01
15720.00 3.827208e-01
15780.00 3.606083e-01
15830.00 3.625990e-01
15870.00 3.627862e-01
15930.00 3.746510e-01
15980.00 3.679838e-01
16050.00 3.702531e-01
16150.00 3.772627e-01
16250.00 3.677444e-01
16350.00 3.799679e-01
16450.00 3.659059e-01
16550.00 3.757265e-01
16650.00 3.676992e-01
16750.00 3.674081e-01
16850.00 3.627768e-01
16950.00 3.647195e-01
17050.00 3.584598e-01
17150.00 3.535741e-01
17250.00 3.475157e-01
17350.00 3.382045e-01
17450.00 3.344168e-01
17550.00 3.283832e-01
17650.00 3.221703e-01
17750.00 3.138114e-01
17850.00 3.089536e-01
17950.00 3.015641e-01
18050.00 2.940544e-01
18150.00 2.895080e-01
18250.00 2.861478e-01
18350.00 2.828852e-01
18450.00 2.761617e-01
18550.00 2.737425e-01
18650.00 2.672608e-01
18750.00 2.614527e-01
18850.00 2.616935e-01
18950.00 2.531291e-01
19050.00 2.567541e-01
19150.00 2.528654e-01
19250.00 2.503380e-01
19350.00 2.442743e-01
19450.00 2.391023e-01
19550.00 2.382967e-01
19650.00 2.348722e-01
19750.00 2.288796e-01
19850.00 2.270811e-01
19950.00 2.250656e-01
20050.00 2.245171e-01
20150.00 2.219320e-01
20250.00 2.175656e-01
20350.00 2.160938e-01
20450.00 2.159040e-01
20550.00 2.130446e-01
20650.00 2.110566e-01
20750.00 2.098094e-01
20850.00 2.075189e-01
20950.00 2.044563e-01
21050.00 2.049625e-01
21150.00 2.018719e-01
21250.00 2.000790e-01
21350.00 1.999402e-01
21450.00 1.977783e-01
21550.00 1.953949e-01
21650.00 1.925771e-01
21750.00 1.903734e-01
21850.00 1.889979e-01
21950.00 1.871918e-01
22050.00 1.829114e-01
22150.00 1.836169e-01
22250.00 1.797279e-01
22350.00 1.779451e-01
22450.00 1.761519e-01
22550.00 1.744910e-01
22650.00 1.711094e-01
22750.00 1.709955e-01
22850.00 1.673035e-01
22950.00 1.429043e-01
23050.00 1.516230e-01
23150.00 1.510293e-01
23250.00 1.307092e-01
23350.00 1.395162e-01
23450.00 1.347013e-01
23550.00 1.211123e-01
23650.00 1.300140e-01
23750.00 1.252970e-01
23850.00 1.143803e-01
23950.00 1.209064e-01
24050.00 1.185504e-01
24150.00 1.090247e-01
24250.00 1.132262e-01
24350.00 1.104750e-01
24450.00 1.047764e-01
24550.00 1.028819e-01
24650.00 1.039259e-01
24750.00 9.958723e-02
24850.00 9.094788e-02
24950.00 9.027256e-02
25050.00 9.159448e-02
25150.00 8.594283e-02
25250.00 8.815170e-02
25350.00 8.798406e-02
25450.00 8.610005e-02
25550.00 8.607579e-02
25650.00 8.634925e-02
25750.00 8.722138e-02
25850.00 8.412109e-02
25950.00 8.476518e-02
26050.00 8.563523e-02
26150.00 8.409754e-02
26250.00 8.300703e-02
26350.00 8.327135e-02
26450.00 8.232584e-02
26550.00 8.175501e-02
26650.00 7.989328e-02
26750.00 8.151704e-02
26850.00 8.071229e-02
26950.00 7.830614e-02
27050.00 7.886485e-02
27150.00 7.805059e-02
27250.00 7.807386e-02
27350.00 7.639062e-02
27450.00 7.639460e-02
27550.00 7.619092e-02
27650.00 7.510313e-02
27750.00 7.365033e-02
27850.00 7.402507e-02
27950.00 7.378352e-02
28050.00 7.263787e-02
28150.00 7.163552e-02
28250.00 7.158134e-02
28350.00 7.097653e-02
28450.00 7.027681e-02
28550.00 6.965222e-02
28650.00 6.935968e-02
28750.00 6.867678e-02
28850.00 6.766477e-02
28950.00 6.717208e-02
29050.00 6.683373e-02
29150.00 6.629098e-02
29250.00 6.484690e-02
29350.00 6.509047e-02
29450.00 6.410311e-02
29550.00 6.378032e-02
29650.00 6.344053e-02
29750.00 6.264333e-02
29850.00 6.207997e-02
29950.00 6.159384e-02
30050.00 6.088525e-02
30150.00 6.088542e-02
30250.00 5.997592e-02
30350.00 5.948372e-02
30450.00 5.965529e-02
30550.00 5.874033e-02
30650.00 5.848211e-02
30750.00 5.810360e-02
30850.00 5.740573e-02
30950.00 5.746248e-02
31050.00 5.724797e-02
31150.00 5.623483e-02
31250.00 5.630527e-02
31350.00 5.576005e-02
31450.00 5.546141e-02
31550.00 5.516974e-02
31650.00 5.448447e-02
31750.00 5.424689e-02
31850.00 5.392001e-02
31950.00 5.368869e-02
32100.00 5.307861e-02
32300.00 5.236075e-02
32500.00 5.167124e-02
32700.00 5.078389e-02
32900.00 5.256111e-02
33100.00 5.181586e-02
33300.00 4.858351e-02
33500.00 4.790792e-02
33700.00 4.706565e-02
33900.00 4.637488e-02
34100.00 4.554163e-02
34300.00 4.495072e-02
34500.00 4.429949e-02
34700.00 4.351355e-02
34900.00 4.279843e-02
35100.00 4.212978e-02
35300.00 4.130944e-02
35500.00 4.070115e-02
35700.00 3.996574e-02
35900.00 3.925228e-02
36100.00 3.884383e-02
36300.00 3.809202e-02
36500.00 3.742069e-02
36700.00 3.677183e-02
36900.00 3.603706e-02
37100.00 3.540840e-02
37300.00 3.491155e-02
37500.00 3.416942e-02
37700.00 3.364313e-02
37900.00 3.299724e-02
38100.00 3.261882e-02
38300.00 3.213765e-02
38500.00 3.161259e-02
38700.00 3.091641e-02
38900.00 3.046370e-02
39100.00 2.993317e-02
39300.00 2.948577e-02
39500.00 2.878175e-02
39700.00 2.836510e-02
39900.00 2.772554e-02
40100.00 2.744251e-02
40300.00 2.704728e-02
40500.00 2.646267e-02
40700.00 2.607329e-02
40900.00 2.563131e-02
41100.00 2.528239e-02
41300.00 2.485504e-02
41500.00 2.442655e-02
41700.00 2.398820e-02
41900.00 2.369507e-02
42100.00 2.321980e-02
42300.00 2.297667e-02
42500.00 2.255973e-02
42700.00 2.226291e-02
42900.00 2.113309e-02
43100.00 2.002683e-02
43300.00 2.004708e-02
43500.00 1.906762e-02
43700.00 1.859981e-02
43900.00 1.826149e-02
44100.00 1.750381e-02
44300.00 1.721591e-02
44500.00 1.693584e-02
44700.00 1.646281e-02
44900.00 1.637395e-02
45100.00 1.601308e-02
45300.00 1.566887e-02
45500.00 1.562227e-02
45700.00 1.548768e-02
45900.00 1.496583e-02
46100.00 1.502375e-02
46300.00 1.480869e-02
46500.00 1.457534e-02
46700.00 1.460626e-02
46900.00 1.434573e-02
47100.00 1.409329e-02
47300.00 1.411466e-02
47500.00 1.378179e-02
47700.00 1.369641e-02
47900.00 1.358410e-02
48100.00 1.328514e-02
48300.00 1.335874e-02
48500.00 1.308554e-02
48700.00 1.288309e-02
48900.00 1.271582e-02
49100.00 1.257490e-02
49300.00 1.244262e-02
49500.00 1.222960e-02
49700.00 1.221278e-02
49900.00 1.196346e-02
50100.00 1.174160e-02
50300.00 1.154784e-02
50500.00 1.137864e-02
50700.00 1.123037e-02
50900.00 1.109984e-02
51100.00 1.098428e-02
51300.00 1.088092e-02
51500.00 1.078734e-02
51700.00 1.070117e-02
51900.00 1.062019e-02
52100.00 1.054241e-02
52300.00 1.046575e-02
52500.00 1.038836e-02
52700.00 1.030851e-02
52900.00 1.022447e-02
53100.00 1.013471e-02
53300.00 1.003771e-02
53500.00 9.932077e-03
53700.00 9.816683e-03
53900.00 9.690312e-03
54100.00 9.552094e-03
54300.00 9.403920e-03
54500.00 9.373575e-03
54700.00 9.234116e-03
54900.00 9.158058e-03
55100.00 9.051835e-03
55300.00 9.076572e-03
55500.00 8.864377e-03
55700.00 8.852487e-03
55900.00 8.728295e-03
56100.00 8.678799e-03
56300.00 8.539675e-03
56500.00 8.509104e-03
56700.00 8.424494e-03
56900.00 8.294927e-03
57100.00 8.275027e-03
57300.00 8.188184e-03
57500.00 8.105813e-03
57700.00 8.021473e-03
57900.00 7.976455e-03
58100.00 7.874433e-03
58300.00 7.807165e-03
58500.00 7.737048e-03
58700.00 7.637370e-03
58900.00 7.576224e-03
59100.00 7.511277e-03
59300.00 7.451760e-03
59500.00 7.366355e-03
59700.00 7.319561e-03
59900.00 7.251447e-03
60100.00 7.185108e-03
60300.00 7.119575e-03
60500.00 7.036412e-03
60700.00 6.977148e-03
60900.00 6.912268e-03
61100.00 6.842657e-03
61300.00 6.794260e-03
61500.00 6.740229e-03
61700.00 6.690755e-03
61900.00 7.497522e-03
62100.00 8.101326e-03
62300.00 8.219939e-03
62500.00 7.909432e-03
62700.00 7.363149e-03
62900.00 6.684269e-03
63100.00 6.283840e-03
63300.00 6.246794e-03
63500.00 6.187360e-03
63700.00 6.149273e-03
63900.00 6.085039e-03
64200.00 6.016509e-03
64600.00 5.916542e-03
65000.00 5.822856e-03
65400.00 5.732661e-03
65800.00 5.650673e-03
66200.00 5.561927e-03
66600.00 5.473894e-03
67000.00 5.383770e-03
67400.00 5.293449e-03
67800.00 5.207609e-03
68200.00 5.120631e-03
68600.00 5.041942e-03
69000.00 4.959310e-03
69400.00 4.882146e-03
69800.00 4.806707e-03
70200.00 4.729211e-03
70600.00 4.659121e-03
71000.00 4.587922e-03
71400.00 4.520370e-03
71800.00 4.452678e-03
72200.00 5.113836e-03
72600.00 4.776894e-03
73000.00 4.972261e-03
73400.00 4.839769e-03
73800.00 4.492124e-03
74200.00 5.069364e-03
74600.00 5.654036e-03
75000.00 6.367793e-03
75400.00 6.898125e-03
75800.00 6.149422e-03
76200.00 6.692401e-03
76600.00 6.844862e-03
77000.00 6.745506e-03
77400.00 6.425140e-03
77800.00 6.334090e-03
78200.00 6.267839e-03
78600.00 6.230580e-03
79000.00 6.057472e-03
79400.00 5.744869e-03
79800.00 5.237139e-03
80200.00 4.773459e-03
80600.00 4.353290e-03
81000.00 3.940257e-03
81400.00 3.716530e-03
81800.00 3.573633e-03
82200.00 3.492180e-03
82600.00 3.433814e-03
83000.00 3.395711e-03
83400.00 3.395483e-03
83800.00 3.448567e-03
84200.00 3.573406e-03
84600.00 3.610414e-03
85000.00 3.660624e-03
85400.00 3.740625e-03
85800.00 3.842167e-03
86200.00 3.899761e-03
86600.00 3.820201e-03
87000.00 3.578881e-03
87400.00 3.318479e-03
87800.00 3.082764e-03
88200.00 2.808670e-03
88600.00 2.559926e-03
89000.00 2.340640e-03
89400.00 2.164293e-03
89800.00 2.037870e-03
90200.00 2.059852e-03
90600.00 2.041579e-03
91000.00 1.970095e-03
91400.00 1.799043e-03
91800.00 1.777438e-03
92200.00 1.757761e-03
92600.00 1.737070e-03
93000.00 1.719301e-03
93400.00 1.700518e-03
93800.00 1.684651e-03
94200.00 1.676075e-03
94600.00 1.661041e-03
95000.00 1.640840e-03
95400.00 1.627814e-03
95800.00 1.615765e-03
96200.00 1.675003e-03
96600.00 1.665616e-03
97000.00 1.719027e-03
97000.00 1.719027e-03
97400.00 1.773066e-03
97800.00 1.792563e-03
98200.00 1.694903e-03
98231.60 1.687602e-03
98600.00 1.650342e-03
99000.00 1.693684e-03
99400.00 1.717824e-03
99478.80 1.721474e-03
99800.00 1.734291e-03
100000.00 1.736627e-03
100742.00 1.741828e-03
102021.00 1.793240e-03
103316.00 1.778651e-03
104628.00 1.761021e-03
105957.00 1.938344e-03
107302.00 2.095863e-03
108665.00 2.021598e-03
110000.00 2.315666e-03
110044.00 2.335041e-03
111442.00 2.882746e-03
112857.00 5.424156e-03
114289.00 3.903838e-03
115741.00 2.694730e-03
117210.00 2.056603e-03
118699.00 1.882954e-03
120000.00 2.034989e-03
120206.00 2.042235e-03
121732.00 1.762575e-03
123278.00 1.874162e-03
124843.00 2.000562e-03
126428.00 2.195273e-03
128033.00 2.759573e-03
129659.00 1.499468e-03
130000.00 1.291525e-03
131305.00 1.072855e-03
132972.00 1.082484e-03
134661.00 9.669743e-04
136371.00 9.550668e-04
138102.00 7.762210e-04
139856.00 8.408028e-04
140000.00 8.299691e-04
141631.00 8.327384e-04
143430.00 8.126242e-04
145251.00 6.271721e-04
147095.00 8.916123e-04
148963.00 8.394576e-04
150000.00 8.347646e-04
150854.00 8.208144e-04
152770.00 8.400936e-04
154710.00 1.033006e-03
156674.00 8.786410e-04
158663.00 8.870853e-04
160000.00 8.897493e-04
160678.00 8.993262e-04
162718.00 1.091880e-03
164784.00 1.316369e-03
166876.00 1.182876e-03
168995.00 1.345683e-03
170000.00 1.482398e-03
171141.00 1.322579e-03
173314.00 1.205629e-03
175515.00 9.224880e-04
177743.00 8.448360e-04
180000.00 7.387361e-04
180000.00 7.387361e-04
190000.00 6.535962e-04
200000.00 5.786708e-04
210000.00 5.759275e-04
220000.00 5.790954e-04
230000.00 5.715240e-04
240000.00 5.701197e-04
250000.00 5.574102e-04
260000.00 5.604873e-04
270000.00 5.900847e-04
280000.00 6.244863e-04
300000.00 6.912819e-04
320000.00 7.926812e-04
340000.00 8.994114e-04
360000.00 1.023294e-03
380000.00 1.151585e-03
400000.00 1.255252e-03
420000.00 1.334734e-03
440000.00 1.414629e-03
460000.00 1.501807e-03
480000.00 1.589209e-03
500000.00 1.678611e-03
520000.00 1.769282e-03
540000.00 1.860184e-03
560000.00 1.952777e-03
580000.00 2.015043e-03
600000.00 2.007528e-03
620000.00 2.000173e-03
640000.00 1.992054e-03
660000.00 1.971485e-03
680000.00 1.923799e-03
700000.00 1.876361e-03
800000.00 1.662128e-03
900000.00 1.385982e-03
1000000.00 1.089133e-03
1100000.00 8.656446e-04
1200000.00 7.001146e-04
1300000.00 5.580276e-04
1400000.00 4.357590e-04
1500000.00 3.522318e-04
1599000.00 2.775315e-04
3000000.00 2.300532e-05
8000000.00 1.785744e-07
12000000.00 1.974001e-08
12720000.00 1.327644e-08
14470000.00 6.455279e-09
16460000.00 3.122725e-09
18730000.00 1.503914e-09
21310000.00 7.217921e-10
24250000.00 3.452268e-10
27590000.00 1.646449e-10
31390000.00 7.837508e-11
35720000.00 3.722243e-11
40640000.00 1.765348e-11
46240000.00 8.361387e-12
52610000.00 3.955759e-12
# Attenuated SED (Av=2.0)
1005.00 1.008611e-04
1015.00 1.069521e-04
1025.00 7.005581e-05
1035.00 9.678678e-05
1045.00 1.687046e-04
1055.00 1.865573e-04
1065.00 1.677647e-04
1075.00 2.049414e-04
1085.00 1.776547e-04
1095.00 2.383679e-04
1105.00 2.605533e-04
1115.00 2.686932e-04
1125.00 2.732096e-04
1135.00 3.428869e-04
1145.00 3.301286e-04
1155.00 3.734243e-04
1165.00 4.093245e-04
1175.00 3.414671e-04
1185.00 4.201148e-04
1195.00 2.610901e-04
1205.00 2.313316e-04
1215.00 1.713466e-04
1225.00 3.013223e-04
1235.00 5.216478e-04
1245.00 6.264351e-04
1255.00 6.126525e-04
1265.00 4.908323e-04
1275.00 7.503691e-04
1285.00 8.358701e-04
1295.00 6.789705e-04
1305.00 6.408200e-04
1315.00 8.616983e-04
1325.00 8.674192e-04
1335.00 7.445243e-04
1345.00 9.780033e-04
1355.00 9.628843e-04
1365.00 8.631130e-04
1375.00 9.655317e-04
1385.00 1.001821e-03
1395.00 9.664946e-04
1405.00 9.938492e-04
1415.00 9.778448e-04
1425.00 1.046631e-03
1435.00 1.023310e-03
1442.00 1.113415e-03
1447.00 1.167370e-03
1455.00 1.138169e-03
1465.00 1.061446e-03
1475.00 1.055649e-03
1485.00 1.117292e-03
1495.00 1.173975e-03
1505.00 1.141920e-03
1512.00 1.019828e-03
1517.00 1.121530e-03
1525.00 1.045472e-03
1535.00 9.238914e-04
1545.00 1.101860e-03
1555.00 1.030103e-03
1565.00 1.022640e-03
1575.00 1.095095e-03
1585.00 1.186903e-03
1595.00 1.238556e-03
1605.00 1.201544e-03
1615.00 1.224117e-03
1625.00 1.146445e-03
1635.00 1.230081e-03
1645.00 1.269957e-03
1655.00 1.146197e-03
1665.00 1.291403e-03
1672.00 1.084515e-03
1677.00 1.297822e-03
1685.00 1.412810e-03
1695.00 1.330139e-03
1705.00 1.269615e-03
1715.00 1.211060e-03
1725.00 1.213843e-03
1735.00 1.315614e-03
1745.00 1.302322e-03
1755.00 1.436859e-03
1765.00 1.271402e-03
1775.00 1.363644e-03
1785.00 1.389524e-03
1795.00 1.527233e-03
1805.00 1.511011e-03
1815.00 1.428866e-03
1825.00 1.443839e-03
1835.00 1.392092e-03
1845.00 1.281908e-03
1855.00 1.300663e-03
1865.00 1.360803e-03
1875.00 1.491999e-03
1885.00 1.403771e-03
1895.00 1.384754e-03
1905.00 1.434850e-03
1915.00 1.422874e-03
1925.00 1.420737e-03
1935.00 1.430087e-03
1945.00 1.528333e-03
1955.00 1.467383e-03
1967.00 1.626875e-03
1976.00 1.666222e-03
1984.00 1.594803e-03
1995.00 1.553507e-03
2005.00 1.590064e-03
2015.00 1.531171e-03
2025.00 1.606829e-03
2035.00 1.572644e-03
2045.00 1.667573e-03
2055.00 1.592446e-03
2065.00 1.601519e-03
2074.00 1.741415e-03
2078.00 1.770025e-03
2085.00 1.850604e-03
2095.00 1.757561e-03
2105.00 1.742533e-03
2115.00 1.798433e-03
2125.00 1.811874e-03
2135.00 1.650243e-03
2145.00 1.807665e-03
2155.00 1.870431e-03
2165.00 1.772171e-03
2175.00 1.767846e-03
2185.00 1.827926e-03
2195.00 1.930233e-03
2205.00 1.869265e-03
2215.00 1.713868e-03
2225.00 1.716557e-03
2235.00 1.972682e-03
2245.00 1.856306e-03
2255.00 1.708990e-03
2265.00 1.735495e-03
2275.00 1.835315e-03
2285.00 2.016533e-03
2295.00 1.873176e-03
2305.00 1.936355e-03
2315.00 1.809668e-03
2325.00 1.402839e-03
2335.00 1.619789e-03
2345.00 1.477330e-03
2355.00 1.817623e-03
2365.00 1.513088e-03
2375.00 1.658365e-03
2385.00 1.415265e-03
2395.00 1.599772e-03
2405.00 1.546642e-03
2415.00 1.637886e-03
2425.00 1.970908e-03
2435.00 1.924075e-03
2445.00 2.151033e-03
2455.00 2.167007e-03
2465.00 2.082833e-03
2475.00 1.953412e-03
2485.00 1.826422e-03
2495.00 1.857548e-03
2505.00 2.256977e-03
2513.00 1.737773e-03
2518.00 1.711998e-03
2525.00 1.656249e-03
2535.00 1.875053e-03
2545.00 1.886359e-03
2555.00 2.450147e-03
2565.00 2.179038e-03
2575.00 2.524198e-03
2585.00 2.413271e-03
2595.00 2.324950e-03
2605.00 2.170953e-03
2615.00 2.096964e-03
2625.00 2.430890e-03
2635.00 3.144912e-03
2645.00 3.850585e-03
2655.00 4.833361e-03
2665.00 3.531883e-03
2675.00 3.897538e-03
2685.00 4.306338e-03
2695.00 3.483254e-03
2705.00 4.054808e-03
2715.00 3.302786e-03
2725.00 2.924308e-03
2735.00 3.440482e-03
2745.00 2.502244e-03
2755.00 2.919983e-03
2765.00 3.459380e-03
2775.00 3.691210e-03
2785.00 2.851329e-03
2795.00 1.817553e-03
2805.00 2.075381e-03
2815.00 3.555703e-03
2825.00 4.432819e-03
2835.00 4.157571e-03
2845.00 3.373540e-03
2855.00 2.653637e-03
2865.00 4.191617e-03
2875.00 5.253235e-03
2885.00 5.043489e-03
2895.00 5.938175e-03
2910.00 7.827521e-03
2930.00 7.046798e-03
2950.00 6.631316e-03
2970.00 6.902863e-03
2990.00 7.095604e-03
3010.00 7.133498e-03
3030.00 7.733101e-03
3050.00 8.099837e-03
3070.00 8.993471e-03
3090.00 8.866084e-03
3110.00 1.040740e-02
3130.00 9.761057e-03
3150.00 1.003122e-02
3170.00 1.110322e-02
3190.00 9.836732e-03
3210.00 1.086300e-02
3230.00 9.538635e-03
3250.00 1.321060e-02
3270.00 1.551330e-02
3290.00 1.552514e-02
3310.00 1.460807e-02
3330.00 1.526900e-02
3350.00 1.491050e-02
3370.00 1.145841e-02
3390.00 1.305945e-02
3410.00 1.357898e-02
3430.00 1.453819e-02
3450.00 1.528994e-02
3470.00 1.603860e-02
3490.00 1.830022e-02
3510.00 1.985770e-02
3530.00 1.801411e-02
3550.00 2.099498e-02
3570.00 1.454520e-02
3590.00 1.504965e-02
3610.00 1.918115e-02
3630.00 2.061858e-02
3640.00 2.169947e-02
3650.00 2.467023e-02
3670.00 2.672775e-02
3690.00 2.402031e-02
3710.00 2.560855e-02
3730.00 1.742214e-02
3750.00 2.046886e-02
3770.00 2.673022e-02
3790.00 2.834284e-02
3810.00 2.728640e-02
3830.00 1.660270e-02
3850.00 2.287269e-02
3870.00 2.339546e-02
3890.00 2.689418e-02
3910.00 3.463146e-02
3930.00 1.894827e-02
3950.00 3.091778e-02
3970.00 2.108029e-02
3990.00 4.577377e-02
4010.00 5.135210e-02
4030.00 5.103691e-02
4050.00 4.951061e-02
4070.00 4.686938e-02
4090.00 5.761500e-02
4110.00 5.382073e-02
4130.00 5.417021e-02
4150.00 5.360265e-02
4170.00 5.515431e-02
4190.00 5.451577e-02
4210.00 5.567716e-02
4230.00 5.298006e-02
4250.00 5.751813e-02
4270.00 5.458595e-02
4290.00 5.185706e-02
4310.00 4.577981e-02
4330.00 6.547291e-02
4350.00 6.576645e-02
4370.00 7.358669e-02
4390.00 6.556964e-02
4410.00 7.014330e-02
4430.00 7.661098e-02
4450.00 7.818662e-02
4470.00 8.466242e-02
4490.00 8.772316e-02
4510.00 1.014364e-01
4530.00 8.854410e-02
4550.00 9.400758e-02
4570.00 1.028507e-01
4590.00 9.812628e-02
4610.00 1.015015e-01
4630.00 1.000305e-01
4650.00 1.022009e-01
4670.00 1.082034e-01
4690.00 1.073510e-01
4710.00 1.047162e-01
4730.00 1.091876e-01
4750.00 1.138190e-01
4770.00 1.127388e-01
4790.00 1.143009e-01
4810.00 1.154908e-01
4830.00 1.206738e-01
4850.00 1.146530e-01
4870.00 1.055466e-01
4890.00 1.192162e-01
4910.00 1.204285e-01
4930.00 1.186034e-01
4950.00 1.249180e-01
4970.00 1.230711e-01
4990.00 1.150426e-01
5010.00 1.089650e-01
5030.00 1.174716e-01
5050.00 1.176836e-01
5070.00 1.240117e-01
5090.00 1.175374e-01
5110.00 1.219746e-01
5130.00 1.182150e-01
5150.00 1.139391e-01
5170.00 1.046517e-01
5190.00 1.100151e-01
5210.00 1.216413e-01
5230.00 1.341462e-01
5250.00 1.421029e-01
5270.00 1.248303e-01
5290.00 1.466310e-01
5310.00 1.582488e-01
5330.00 1.380429e-01
5350.00 1.538162e-01
5370.00 1.537594e-01
5390.00 1.512551e-01
5410.00 1.499247e-01
5430.00 1.533727e-01
5450.00 1.587216e-01
5470.00 1.567474e-01
5490.00 1.592703e-01
5510.00 1.580050e-01
5530.00 1.661736e-01
5550.00 1.700638e-01
5570.00 1.672498e-01
5590.00 1.634640e-01
5610.00 1.711912e-01
5630.00 1.714584e-01
5650.00 1.759863e-01
5670.00 1.725010e-01
5690.00 1.799084e-01
5710.00 1.741943e-01
5730.00 1.919700e-01
5750.00 1.855400e-01
5770.00 1.885965e-01
5790.00 1.817458e-01
5810.00 1.914091e-01
5830.00 1.989152e-01
5850.00 1.930940e-01
5870.00 1.937877e-01
5890.00 1.680153e-01
5910.00 1.923927e-01
5930.00 1.959800e-01
5950.00 1.973892e-01
5970.00 2.025121e-01
5990.00 2.002185e-01
6010.00 1.987834e-01
6030.00 2.062350e-01
6050.00 2.117903e-01
6070.00 2.125029e-01
6090.00 2.056574e-01
6110.00 2.080155e-01
6130.00 1.965066e-01
6150.00 2.039863e-01
6170.00 1.919680e-01
6190.00 2.071090e-01
6210.00 2.061216e-01
6230.00 2.001252e-01
6250.00 1.948538e-01
6270.00 2.060975e-01
6290.00 2.118993e-01
6310.00 2.050827e-01
6330.00 2.096531e-01
6350.00 2.114651e-01
6370.00 2.116222e-01
6390.00 2.177745e-01
6410.00 2.147510e-01
6430.00 2.182616e-01
6450.00 2.178893e-01
6470.00 2.185230e-01
6490.00 2.155362e-01
6510.00 2.256475e-01
6530.00 2.269868e-01
6550.00 2.227223e-01
6570.00 2.124043e-01
6590.00 2.271055e-01
6610.00 2.307368e-01
6630.00 2.291988e-01
6650.00 2.305103e-01
6670.00 2.258394e-01
6690.00 2.300313e-01
6710.00 2.214264e-01
6730.00 2.291149e-01
6750.00 2.261243e-01
6770.00 2.286768e-01
6790.00 2.269336e-01
6810.00 2.296783e-01
6830.00 2.343343e-01
6850.00 2.289315e-01
6870.00 2.345624e-01
6890.00 2.396613e-01
6910.00 2.405450e-01
6930.00 2.400610e-01
6950.00 2.417091e-01
6970.00 2.467029e-01
6990.00 2.469932e-01
7010.00 2.450853e-01
7030.00 2.521284e-01
7050.00 2.544148e-01
7070.00 2.464259e-01
7090.00 2.385456e-01
7110.00 2.330171e-01
7130.00 2.284451e-01
7150.00 2.285462e-01
7170.00 2.333915e-01
7190.00 2.287165e-01
7210.00 2.358826e-01
7230.00 2.435263e-01
7250.00 2.470159e-01
7270.00 2.505270e-01
7290.00 2.487405e-01
7310.00 2.582546e-01
7330.00 2.605439e-01
7350.00 2.652162e-01
7370.00 2.744739e-01
7390.00 2.707336e-01
7410.00 2.721987e-01
7430.00 2.811401e-01
7450.00 2.819778e-01
7470.00 2.887994e-01
7490.00 2.898801e-01
7510.00 2.945347e-01
7530.00 3.014697e-01
7550.00 3.052917e-01
7570.00 3.055041e-01
7590.00 2.988693e-01
7610.00 2.939964e-01
7630.00 2.874613e-01
7650.00 2.813170e-01
7670.00 2.669979e-01
7690.00 2.753540e-01
7710.00 2.711485e-01
7730.00 2.732349e-01
7750.00 2.724986e-01
7770.00 2.776631e-01
7790.00 2.811965e-01
7810.00 2.823616e-01
7830.00 2.811287e-01
7850.00 2.784316e-01
7870.00 2.851253e-01
7890.00 2.826434e-01
7910.00 2.769645e-01
7930.00 2.795447e-01
7950.00 2.784524e-01
7970.00 2.899141e-01
7990.00 2.913095e-01
8010.00 2.964317e-01
8030.00 2.993402e-01
8050.00 3.010081e-01
8070.00 3.072037e-01
8090.00 3.061180e-01
8110.00 3.113475e-01
8130.00 3.232205e-01
8150.00 3.292977e-01
8170.00 3.343887e-01
8190.00 3.233003e-01
8210.00 3.208993e-01
8230.00 3.241698e-01
8250.00 3.248521e-01
8270.00 3.291862e-01
8290.00 3.264653e-01
8310.00 3.160886e-01
8330.00 3.143360e-01
8350.00 3.157395e-01
8370.00 3.187390e-01
8390.00 3.078778e-01
8410.00 3.204900e-01
8430.00 3.044324e-01
8450.00 2.974203e-01
8470.00 2.987378e-01
8490.00 3.016857e-01
8510.00 2.899305e-01
8530.00 3.032418e-01
8550.00 2.790467e-01
8570.00 3.166239e-01
8590.00 3.143929e-01
8610.00 3.196223e-01
8630.00 3.273820e-01
8650.00 3.290454e-01
8670.00 2.962675e-01
8690.00 3.236690e-01
8710.00 3.379953e-01
8730.00 3.425096e-01
8750.00 3.410855e-01
8770.00 3.487532e-01
8790.00 3.547491e-01
8810.00 3.487392e-01
8830.00 3.536057e-01
8850.00 3.544576e-01
8870.00 3.408392e-01
8890.00 3.465723e-01
8910.00 3.520423e-01
8930.00 3.467307e-01
8950.00 3.489962e-01
8970.00 3.515609e-01
8990.00 3.535441e-01
9010.00 3.442917e-01
9030.00 3.593027e-01
9050.00 3.723154e-01
9070.00 3.740561e-01
9090.00 3.683101e-01
9110.00 3.745362e-01
9130.00 3.825982e-01
9150.00 3.810363e-01
9170.00 3.821804e-01
9190.00 3.878801e-01
9210.00 3.728763e-01
9230.00 3.629728e-01
9250.00 3.625107e-01
9270.00 3.660368e-01
9290.00 3.609374e-01
9310.00 3.644638e-01
9330.00 3.664524e-01
9350.00 3.659538e-01
9370.00 3.604525e-01
9390.00 3.689965e-01
9410.00 3.634566e-01
9430.00 3.739315e-01
9450.00 3.696222e-01
9470.00 3.801591e-01
9490.00 3.821768e-01
9510.00 3.756043e-01
9530.00 3.795210e-01
9550.00 3.741701e-01
9570.00 3.790532e-01
9590.00 3.874953e-01
9610.00 3.827450e-01
9630.00 3.866996e-01
9650.00 3.796360e-01
9670.00 3.813112e-01
9690.00 3.888607e-01
9710.00 3.830327e-01
9730.00 3.797902e-01
9750.00 3.798122e-01
9770.00 3.831248e-01
9790.00 3.781832e-01
9810.00 3.897812e-01
9830.00 3.864792e-01
9850.00 3.908161e-01
9870.00 3.891568e-01
9890.00 3.898264e-01
9910.00 3.857911e-01
9930.00 3.898082e-01
9950.00 3.921522e-01
9970.00 3.934859e-01
9990.00 3.934631e-01
10030.00 3.954437e-01
10070.00 3.926231e-01
10130.00 4.000246e-01
10170.00 3.971275e-01
10220.00 4.012816e-01
10280.00 4.052295e-01
10320.00 4.025647e-01
10380.00 4.025658e-01
10430.00 4.067000e-01
10480.00 4.025705e-01
10520.00 3.993529e-01
10580.00 3.929725e-01
10630.00 3.911513e-01
10680.00 3.900131e-01
10720.00 3.946866e-01
10780.00 3.946693e-01
10820.00 3.903976e-01
10870.00 3.913641e-01
10920.00 3.930649e-01
10980.00 3.898479e-01
11020.00 3.880382e-01
11080.00 3.832639e-01
11130.00 3.840277e-01
11170.00 3.828341e-01
11220.00 3.846819e-01
11280.00 3.819289e-01
11330.00 3.834197e-01
11380.00 3.818135e-01
11430.00 3.793714e-01
11470.00 3.859769e-01
11530.00 3.867410e-01
11570.00 3.835296e-01
11620.00 3.790149e-01
11670.00 3.803695e-01
11730.00 3.835761e-01
11770.00 3.754151e-01
11830.00 3.732478e-01
11870.00 3.675078e-01
11920.00 3.747584e-01
11980.00 3.638670e-01
12030.00 3.727653e-01
12070.00 3.710669e-01
12120.00 3.730045e-01
12180.00 3.755540e-01
12230.00 3.746658e-01
12270.00 3.730090e-01
12320.00 3.715952e-01
12370.00 3.721378e-01
12430.00 3.674100e-01
12480.00 3.675951e-01
12530.00 3.654428e-01
12580.00 3.656287e-01
12620.00 3.643202e-01
12670.00 3.623909e-01
12720.00 3.638078e-01
12780.00 3.652773e-01
12830.00 3.548932e-01
12880.00 3.614203e-01
12920.00 3.581374e-01
12980.00 3.632887e-01
13020.00 3.596426e-01
13080.00 3.618799e-01
13130.00 3.543610e-01
13180.00 3.546852e-01
13230.00 3.557358e-01
13280.00 3.502926e-01
13320.00 3.505926e-01
13380.00 3.479284e-01
13430.00 3.498033e-01
13470.00 3.474906e-01
13520.00 3.455829e-01
13570.00 3.417098e-01
13630.00 3.410180e-01
13670.00 3.436061e-01
13730.00 3.458514e-01
13770.00 3.457656e-01
13820.00 3.470065e-01
13880.00 3.447058e-01
13930.00 3.294603e-01
13970.00 3.277880e-01
14020.00 3.254327e-01
14080.00 3.290261e-01
14120.00 3.255947e-01
14180.00 3.298755e-01
14230.00 3.275487e-01
14280.00 3.231173e-01
14330.00 3.295753e-01
14380.00 3.332228e-01
14420.00 3.261921e-01
14480.00 3.326861e-01
14520.00 3.308704e-01
14570.00 3.334180e-01
14620.00 3.269237e-01
14670.00 3.256537e-01
14720.00 3.239094e-01
14770.00 3.268868e-01
14830.00 3.297541e-01
14880.00 3.268477e-01
14920.00 3.362788e-01
14980.00 3.344756e-01
15030.00 3.297722e-01
15070.00 3.320089e-01
15120.00 3.393216e-01
15170.00 3.413479e-01
15220.00 3.421747e-01
15280.00 3.454375e-01
15330.00 3.456818e-01
15370.00 3.455778e-01
15430.00 3.439831e-01
15480.00 3.456847e-01
15520.00 3.433283e-01
15570.00 3.353290e-01
15620.00 3.388137e-01
15670.00 3.385613e-01
15720.00 3.466182e-01
15780.00 3.268401e-01
15830.00 3.288513e-01
15870.00 3.291858e-01
15930.00 3.402055e-01
15980.00 3.343578e-01
16050.00 3.367086e-01
16150.00 3.434995e-01
16250.00 3.352345e-01
16350.00 3.467876e-01
16450.00 3.343442e-01
16550.00 3.437144e-01
16650.00 3.367551e-01
16750.00 3.368681e-01
16850.00 3.329926e-01
16950.00 3.351446e-01
17050.00 3.297510e-01
17150.00 3.256066e-01
17250.00 3.203678e-01
17350.00 3.121117e-01
17450.00 3.089369e-01
17550.00 3.036747e-01
17650.00 2.982318e-01
17750.00 2.907858e-01
17850.00 2.865687e-01
17950.00 2.799891e-01
18050.00 2.732818e-01
18150.00 2.693150e-01
18250.00 2.664419e-01
18350.00 2.636515e-01
18450.00 2.576243e-01
18550.00 2.556022e-01
18650.00 2.497770e-01
18750.00 2.445686e-01
18850.00 2.450118e-01
18950.00 2.372020e-01
19050.00 2.408086e-01
19150.00 2.373659e-01
19250.00 2.351939e-01
19350.00 2.296909e-01
19450.00 2.250156e-01
19550.00 2.244430e-01
19650.00 2.213987e-01
19750.00 2.159248e-01
19850.00 2.144000e-01
19950.00 2.126658e-01
20050.00 2.123143e-01
20150.00 2.100332e-01
20250.00 2.060596e-01
20350.00 2.048219e-01
20450.00 2.047966e-01
20550.00 2.022356e-01
20650.00 2.004970e-01
20750.00 1.994585e-01
20850.00 1.974245e-01
20950.00 1.946509e-01
21050.00 1.952720e-01
21150.00 1.924634e-01
21250.00 1.908876e-01
21350.00 1.908875e-01
21450.00 1.889531e-01
21550.00 1.868031e-01
21650.00 1.842332e-01
21750.00 1.822467e-01
21850.00 1.810497e-01
21950.00 1.794371e-01
22050.00 1.754480e-01
22150.00 1.762382e-01
22250.00 1.726155e-01
22350.00 1.710114e-01
22450.00 1.693942e-01
22550.00 1.679013e-01
22650.00 1.647488e-01
22750.00 1.647396e-01
22850.00 1.612802e-01
22950.00 1.378420e-01
23050.00 1.463388e-01
23150.00 1.458518e-01
23250.00 1.263021e-01
23350.00 1.348902e-01
23450.00 1.303098e-01
23550.00 1.172305e-01
23650.00 1.259180e-01
23750.00 1.214175e-01
23850.00 1.109004e-01
23950.00 1.172925e-01
24050.00 1.150697e-01
24150.00 1.058810e-01
24250.00 1.100204e-01
24350.00 1.074043e-01
24450.00 1.019179e-01
24550.00 1.001275e-01
24650.00 1.011961e-01
24750.00 9.702142e-02
24850.00 8.864997e-02
24950.00 8.803635e-02
25050.00 8.937048e-02
25150.00 8.389792e-02
25250.00 8.609685e-02
25350.00 8.597535e-02
25450.00 8.417536e-02
25550.00 8.419235e-02
25650.00 8.450036e-02
25750.00 8.539446e-02
25850.00 8.239802e-02
25950.00 8.306785e-02
26050.00 8.395953e-02
26150.00 8.248999e-02
26250.00 8.145764e-02
26350.00 8.175418e-02
26450.00 8.086237e-02
26550.00 8.033765e-02
26650.00 7.854309e-02
26750.00 8.017477e-02
26850.00 7.941803e-02
26950.00 7.708395e-02
27050.00 7.766744e-02
27150.00 7.689846e-02
27250.00 7.695408e-02
27350.00 7.532676e-02
27450.00 7.536224e-02
27550.00 7.519258e-02
27650.00 7.414964e-02
27750.00 7.274508e-02
27850.00 7.314498e-02
27950.00 7.293576e-02
28050.00 7.183207e-02
28150.00 7.086906e-02
28250.00 7.084347e-02
28350.00 7.027247e-02
28450.00 6.960683e-02
28550.00 6.901491e-02
28650.00 6.875147e-02
28750.00 6.810055e-02
28850.00 6.712247e-02
28950.00 6.665882e-02
29050.00 6.634786e-02
29150.00 6.583349e-02
29250.00 6.442314e-02
29350.00 6.468880e-02
29450.00 6.373071e-02
29550.00 6.343271e-02
29650.00 6.311743e-02
29750.00 6.234650e-02
29850.00 6.180770e-02
29950.00 6.134527e-02
30050.00 6.066073e-02
30150.00 6.068195e-02
30250.00 5.979611e-02
30350.00 5.932570e-02
30450.00 5.951706e-02
30550.00 5.862404e-02
30650.00 5.838593e-02
30750.00 5.802740e-02
30850.00 5.734946e-02
30950.00 5.742505e-02
31050.00 5.722941e-02
31150.00 5.623488e-02
31250.00 5.632351e-02
31350.00 5.579602e-02
31450.00 5.551489e-02
31550.00 5.524044e-02
31650.00 5.457147e-02
31750.00 5.435051e-02
31850.00 5.403981e-02
31950.00 5.382461e-02
32100.00 5.323746e-02
32300.00 5.254931e-02
32500.00 5.188840e-02
32700.00 5.102751e-02
32900.00 5.284413e-02
33100.00 5.212496e-02
33300.00 4.890122e-02
33500.00 4.824840e-02
33700.00 4.742656e-02
33900.00 4.675623e-02
34100.00 4.594111e-02
34300.00 4.536941e-02
34500.00 4.473588e-02
34700.00 4.396529e-02
34900.00 4.326520e-02
35100.00 4.261113e-02
35300.00 4.180263e-02
35500.00 4.120775e-02
35700.00 4.048328e-02
35900.00 3.978009e-02
36100.00 3.938525e-02
36300.00 3.864150e-02
36500.00 3.797852e-02
36700.00 3.733750e-02
36900.00 3.660843e-02
37100.00 3.598633e-02
37300.00 3.549750e-02
37500.00 3.475853e-02
37700.00 3.423840e-02
37900.00 3.359586e-02
38100.00 3.322505e-02
38300.00 3.274905e-02
38500.00 3.222774e-02
38700.00 3.153131e-02
38900.00 3.108259e-02
39100.00 3.055391e-02
39300.00 3.010955e-02
39500.00 2.940254e-02
39700.00 2.898853e-02
39900.00 2.834616e-02
40100.00 2.806783e-02
40300.00 2.767436e-02
40500.00 2.708663e-02
40700.00 2.669825e-02
40900.00 2.625560e-02
41100.00 2.590788e-02
41300.00 2.547939e-02
41500.00 2.504933e-02
41700.00 2.460874e-02
41900.00 2.431677e-02
42100.00 2.383754e-02
42300.00 2.359627e-02
42500.00 2.317619e-02
42700.00 2.287918e-02
42900.00 2.172555e-02
43100.00 2.059528e-02
43300.00 2.062306e-02
43500.00 1.962201e-02
43700.00 1.914693e-02
43900.00 1.880481e-02
44100.00 1.803044e-02
44300.00 1.773960e-02
44500.00 1.745658e-02
44700.00 1.697437e-02
44900.00 1.688804e-02
45100.00 1.652097e-02
45300.00 1.617082e-02
45500.00 1.612764e-02
45700.00 1.599353e-02
45900.00 1.545927e-02
46100.00 1.552371e-02
46300.00 1.530601e-02
46500.00 1.506922e-02
46700.00 1.510556e-02
46900.00 1.484039e-02
47100.00 1.458340e-02
47300.00 1.460963e-02
47500.00 1.426908e-02
47700.00 1.418462e-02
47900.00 1.407218e-02
48100.00 1.376624e-02
48300.00 1.384625e-02
48500.00 1.356673e-02
48700.00 1.336038e-02
48900.00 1.319040e-02
49100.00 1.304764e-02
49300.00 1.291373e-02
49500.00 1.269592e-02
49700.00 1.268170e-02
49900.00 1.242596e-02
50100.00 1.219859e-02
50300.00 1.200028e-02
50500.00 1.182738e-02
50700.00 1.167613e-02
50900.00 1.154324e-02
51100.00 1.142582e-02
51300.00 1.132102e-02
51500.00 1.122633e-02
51700.00 1.113928e-02
51900.00 1.105758e-02
52100.00 1.097915e-02
52300.00 1.090183e-02
52500.00 1.082369e-02
52700.00 1.074294e-02
52900.00 1.065776e-02
53100.00 1.056656e-02
53300.00 1.046775e-02
53500.00 1.035988e-02
53700.00 1.024176e-02
53900.00 1.011211e-02
54100.00 9.970029e-03
54300.00 9.817473e-03
54500.00 9.787874e-03
54700.00 9.644285e-03
54900.00 9.566851e-03
55100.00 9.457853e-03
55300.00 9.485657e-03
55500.00 9.265797e-03
55700.00 9.255251e-03
55900.00 9.127253e-03
56100.00 9.077314e-03
56300.00 8.933581e-03
56500.00 8.903359e-03
56700.00 8.816560e-03
56900.00 8.682655e-03
57100.00 8.663502e-03
57300.00 8.574230e-03
57500.00 8.489595e-03
57700.00 8.402855e-03
57900.00 8.357269e-03
58100.00 8.251919e-03
58300.00 8.182945e-03
58500.00 8.110949e-03
58700.00 8.007920e-03
58900.00 7.945253e-03
59100.00 7.878565e-03
59300.00 7.817541e-03
59500.00 7.729321e-03
59700.00 7.681582e-03
59900.00 7.611437e-03
60100.00 7.543122e-03
60300.00 7.475621e-03
60500.00 7.389573e-03
60700.00 7.328590e-03
60900.00 7.261677e-03
61100.00 7.189762e-03
61300.00 7.140109e-03
61500.00 7.084509e-03
61700.00 7.033674e-03
61900.00 7.883087e-03
62100.00 8.519336e-03
62300.00 8.645475e-03
62500.00 8.320237e-03
62700.00 7.746824e-03
62900.00 7.033691e-03
63100.00 6.613377e-03
63300.00 6.575423e-03
63500.00 6.513882e-03
63700.00 6.474791e-03
63900.00 6.408147e-03
64200.00 6.337436e-03
64600.00 6.234027e-03
65000.00 6.137152e-03
65400.00 6.043876e-03
65800.00 5.959178e-03
66200.00 5.867281e-03
66600.00 5.776063e-03
67000.00 5.682565e-03
67400.00 5.588787e-03
67800.00 5.499671e-03
68200.00 5.409287e-03
68600.00 5.327594e-03
69000.00 5.241673e-03
69400.00 5.161472e-03
69800.00 5.083036e-03
70200.00 5.002369e-03
70600.00 4.929481e-03
71000.00 4.855368e-03
71400.00 4.785066e-03
71800.00 4.714567e-03
72200.00 5.415925e-03
72600.00 5.060293e-03
73000.00 5.268502e-03
73400.00 5.129319e-03
73800.00 4.761981e-03
74200.00 5.375132e-03
74600.00 5.996433e-03
75000.00 6.754932e-03
75400.00 7.319133e-03
75800.00 6.526172e-03
76200.00 7.103964e-03
76600.00 7.267366e-03
77000.00 7.163405e-03
77400.00 6.824632e-03
77800.00 6.729325e-03
78200.00 6.660318e-03
78600.00 6.622080e-03
79000.00 6.439399e-03
79400.00 6.108311e-03
79800.00 5.569566e-03
80200.00 5.077452e-03
80600.00 4.631426e-03
81000.00 4.192812e-03
81400.00 3.955498e-03
81800.00 3.804132e-03
82200.00 3.718121e-03
82600.00 3.656656e-03
83000.00 3.616744e-03
83400.00 3.617158e-03
83800.00 3.674368e-03
84200.00 3.808061e-03
84600.00 3.848179e-03
85000.00 3.902377e-03
85400.00 3.988352e-03
85800.00 4.097323e-03
86200.00 4.159448e-03
86600.00 4.075278e-03
87000.00 3.818482e-03
87400.00 3.541232e-03
87800.00 3.290234e-03
88200.00 2.998180e-03
88600.00 2.733093e-03
89000.00 2.499372e-03
89400.00 2.311431e-03
89800.00 2.176755e-03
90200.00 2.200576e-03
90600.00 2.181390e-03
91000.00 2.105333e-03
91400.00 1.922829e-03
91800.00 1.900022e-03
92200.00 1.879268e-03
92600.00 1.857420e-03
93000.00 1.838688e-03
93400.00 1.818865e-03
93800.00 1.802152e-03
94200.00 1.793233e-03
94600.00 1.777399e-03
95000.00 1.756028e-03
95400.00 1.742330e-03
95800.00 1.729671e-03
96200.00 1.793330e-03
96600.00 1.783521e-03
97000.00 1.840961e-03
97000.00 1.840961e-03
97400.00 1.899085e-03
97800.00 1.920221e-03
98200.00 1.815845e-03
98231.60 1.808041e-03
98600.00 1.768334e-03
99000.00 1.815008e-03
99400.00 1.841112e-03
99478.80 1.845071e-03
99800.00 1.858997e-03
100000.00 1.861618e-03
100742.00 1.867626e-03
102021.00 1.923503e-03
103316.00 1.908592e-03
104628.00 1.890395e-03
105957.00 2.081530e-03
107302.00 2.251523e-03
108665.00 2.172540e-03
110000.00 2.489438e-03
110044.00 2.510296e-03
111442.00 3.100220e-03
112857.00 5.835418e-03
114289.00 4.201295e-03
115741.00 2.901060e-03
117210.00 2.214826e-03
118699.00 2.028500e-03
120000.00 2.192917e-03
120206.00 2.200823e-03
121732.00 1.900070e-03
123278.00 2.021016e-03
124843.00 2.158011e-03
126428.00 2.368793e-03
128033.00 2.978626e-03
129659.00 1.618994e-03
130000.00 1.394564e-03
131305.00 1.158726e-03
132972.00 1.169478e-03
134661.00 1.044994e-03
136371.00 1.032428e-03
138102.00 8.393384e-04
139856.00 9.094313e-04
140000.00 8.977340e-04
141631.00 9.009625e-04
143430.00 8.794452e-04
145251.00 6.789302e-04
147095.00 9.654557e-04
148963.00 9.092252e-04
150000.00 9.042741e-04
150854.00 8.892679e-04
152770.00 9.103928e-04
154710.00 1.119737e-03
156674.00 9.526544e-04
158663.00 9.620520e-04
160000.00 9.651009e-04
160678.00 9.755698e-04
162718.00 1.184739e-03
164784.00 1.428666e-03
166876.00 1.284092e-03
168995.00 1.461175e-03
170000.00 1.609801e-03
171141.00 1.436423e-03
173314.00 1.309708e-03
175515.00 1.002352e-03
177743.00 9.181835e-04
180000.00 8.030503e-04
180000.00 8.030503e-04
190000.00 7.111517e-04
200000.00 6.301496e-04
210000.00 6.276320e-04
220000.00 6.315139e-04
230000.00 6.236446e-04
240000.00 6.224668e-04
250000.00 6.089093e-04
260000.00 6.125670e-04
270000.00 6.452034e-04
280000.00 6.831025e-04
300000.00 7.567341e-04
320000.00 8.683027e-04
340000.00 9.857847e-04
360000.00 1.122140e-03
380000.00 1.263405e-03
400000.00 1.377707e-03
420000.00 1.465492e-03
440000.00 1.553742e-03
460000.00 1.650006e-03
480000.00 1.746531e-03
500000.00 1.845266e-03
520000.00 1.945410e-03
540000.00 2.045818e-03
560000.00 2.148098e-03
580000.00 2.217022e-03
600000.00 2.209152e-03
620000.00 2.201431e-03
640000.00 2.192843e-03
660000.00 2.170524e-03
680000.00 2.118320e-03
700000.00 2.066358e-03
800000.00 1.831460e-03
900000.00 1.527849e-03
1000000.00 1.201034e-03
1100000.00 9.548569e-04
1200000.00 7.724516e-04
1300000.00 6.158080e-04
1400000.00 4.809623e-04
1500000.00 3.888287e-04
1599000.00 3.064068e-04
3000000.00 2.542220e-05
8000000.00 1.974643e-07
12000000.00 2.183101e-08
12720000.00 1.468299e-08
14470000.00 7.139385e-09
16460000.00 3.453750e-09
18730000.00 1.663375e-09
21310000.00 7.983406e-10
24250000.00 3.818461e-10
27590000.00 1.821122e-10
31390000.00 8.669112e-11
35720000.00 4.117245e-11
40640000.00 1.952707e-11
46240000.00 9.248876e-12
52610000.00 4.375664e-12
